#MeasParameter
&HWS=C:\RAYFLEX\PTS.hws.HWS
&Sample=
&Material=
&Operator=USER_1
&Anode=Cr	&Filter=V	&kV=40	&mA=40
&Detector=ScintCount

#TextureParameter
&H=1	&K=1	&L=1
&Mode=REFL
&Raster=CIRCULAR
&AlphaStart=0.000	&AlphaEnd=70.000	&AlphaStep=3.500
&BetaStart=0.000	&BetaEnd=360.000	&BetaStep=3.600
&2Theta=57.000	&Window=0.000	&Step=0.000
&Time=10.0	&Counts=0
&BGLeft=55.000	&BGRight=0.000	&BGTime=10.0	&BGCounts=0

#Values
&NoValues=2121
   0.000	   0.000	    74.900	    37.100
   0.000	   3.600	    75.700	    37.100
   0.000	   7.200	    71.700	    37.100
   0.000	  10.800	    74.700	    37.100
   0.000	  14.400	    77.300	    37.100
   0.000	  18.000	    77.100	    37.100
   0.000	  21.600	    71.700	    37.100
   0.000	  25.200	    75.300	    37.100
   0.000	  28.800	    74.800	    37.100
   0.000	  32.400	    70.300	    37.100
   0.000	  36.000	    69.300	    37.100
   0.000	  39.600	    76.500	    37.100
   0.000	  43.200	    69.100	    37.100
   0.000	  46.800	    77.000	    37.100
   0.000	  50.400	    76.000	    37.100
   0.000	  54.000	    68.600	    37.100
   0.000	  57.600	    77.600	    37.100
   0.000	  61.200	    72.700	    37.100
   0.000	  64.800	    74.700	    37.100
   0.000	  68.400	    73.900	    37.100
   0.000	  72.000	    75.100	    37.100
   0.000	  75.600	    68.500	    37.100
   0.000	  79.200	    71.900	    37.100
   0.000	  82.800	    73.900	    37.100
   0.000	  86.400	    70.200	    37.100
   0.000	  90.000	    68.400	    37.100
   0.000	  93.600	    63.000	    37.100
   0.000	  97.200	    66.300	    37.100
   0.000	 100.800	    72.000	    37.100
   0.000	 104.400	    71.500	    37.100
   0.000	 108.000	    68.300	    37.100
   0.000	 111.600	    66.900	    37.100
   0.000	 115.200	    67.700	    37.100
   0.000	 118.800	    62.600	    37.100
   0.000	 122.400	    62.900	    37.100
   0.000	 126.000	    68.300	    37.100
   0.000	 129.600	    64.500	    37.100
   0.000	 133.200	    67.300	    37.100
   0.000	 136.800	    64.300	    37.100
   0.000	 140.400	    61.900	    37.100
   0.000	 144.000	    66.700	    37.100
   0.000	 147.600	    61.300	    37.100
   0.000	 151.200	    66.000	    37.100
   0.000	 154.800	    64.600	    37.100
   0.000	 158.400	    64.700	    37.100
   0.000	 162.000	    58.800	    37.100
   0.000	 165.600	    62.000	    37.100
   0.000	 169.200	    62.700	    37.100
   0.000	 172.800	    65.400	    37.100
   0.000	 176.400	    67.900	    37.100
   0.000	 180.000	    60.700	    37.100
   0.000	 183.600	    60.100	    37.100
   0.000	 187.200	    58.300	    37.100
   0.000	 190.800	    66.400	    37.100
   0.000	 194.400	    62.900	    37.100
   0.000	 198.000	    59.100	    37.100
   0.000	 201.600	    60.800	    37.100
   0.000	 205.200	    59.200	    37.100
   0.000	 208.800	    60.600	    37.100
   0.000	 212.400	    62.700	    37.100
   0.000	 216.000	    59.300	    37.100
   0.000	 219.600	    58.800	    37.100
   0.000	 223.200	    66.000	    37.100
   0.000	 226.800	    66.900	    37.100
   0.000	 230.400	    62.100	    37.100
   0.000	 234.000	    63.400	    37.100
   0.000	 237.600	    63.100	    37.100
   0.000	 241.200	    64.800	    37.100
   0.000	 244.800	    61.500	    37.100
   0.000	 248.400	    63.900	    37.100
   0.000	 252.000	    67.600	    37.100
   0.000	 255.600	    66.200	    37.100
   0.000	 259.200	    68.000	    37.100
   0.000	 262.800	    65.800	    37.100
   0.000	 266.400	    69.400	    37.100
   0.000	 270.000	    62.200	    37.100
   0.000	 273.600	    65.200	    37.100
   0.000	 277.200	    67.600	    37.100
   0.000	 280.800	    68.300	    37.100
   0.000	 284.400	    68.700	    37.100
   0.000	 288.000	    71.700	    37.100
   0.000	 291.600	    66.300	    37.100
   0.000	 295.200	    67.700	    37.100
   0.000	 298.800	    75.500	    37.100
   0.000	 302.400	    73.800	    37.100
   0.000	 306.000	    72.100	    37.100
   0.000	 309.600	    72.900	    37.100
   0.000	 313.200	    71.100	    37.100
   0.000	 316.800	    76.000	    37.100
   0.000	 320.400	    70.300	    37.100
   0.000	 324.000	    76.100	    37.100
   0.000	 327.600	    66.200	    37.100
   0.000	 331.200	    71.900	    37.100
   0.000	 334.800	    70.400	    37.100
   0.000	 338.400	    68.400	    37.100
   0.000	 342.000	    73.600	    37.100
   0.000	 345.600	    68.600	    37.100
   0.000	 349.200	    74.700	    37.100
   0.000	 352.800	    78.300	    37.100
   0.000	 356.400	    78.200	    37.100
   0.000	 360.000	    76.700	    37.100
   3.500	   0.000	    76.200	    36.600
   3.500	   3.600	    80.300	    36.600
   3.500	   7.200	    72.300	    36.600
   3.500	  10.800	    74.700	    36.600
   3.500	  14.400	    77.000	    36.600
   3.500	  18.000	    73.600	    36.600
   3.500	  21.600	    71.700	    36.600
   3.500	  25.200	    67.500	    36.600
   3.500	  28.800	    70.800	    36.600
   3.500	  32.400	    74.400	    36.600
   3.500	  36.000	    69.300	    36.600
   3.500	  39.600	    66.900	    36.600
   3.500	  43.200	    67.900	    36.600
   3.500	  46.800	    75.900	    36.600
   3.500	  50.400	    73.500	    36.600
   3.500	  54.000	    72.100	    36.600
   3.500	  57.600	    70.100	    36.600
   3.500	  61.200	    75.700	    36.600
   3.500	  64.800	    67.600	    36.600
   3.500	  68.400	    76.500	    36.600
   3.500	  72.000	    72.900	    36.600
   3.500	  75.600	    70.600	    36.600
   3.500	  79.200	    71.100	    36.600
   3.500	  82.800	    67.400	    36.600
   3.500	  86.400	    66.700	    36.600
   3.500	  90.000	    62.400	    36.600
   3.500	  93.600	    64.300	    36.600
   3.500	  97.200	    71.000	    36.600
   3.500	 100.800	    62.700	    36.600
   3.500	 104.400	    62.100	    36.600
   3.500	 108.000	    67.700	    36.600
   3.500	 111.600	    64.800	    36.600
   3.500	 115.200	    65.500	    36.600
   3.500	 118.800	    63.400	    36.600
   3.500	 122.400	    64.700	    36.600
   3.500	 126.000	    61.400	    36.600
   3.500	 129.600	    64.400	    36.600
   3.500	 133.200	    62.400	    36.600
   3.500	 136.800	    63.000	    36.600
   3.500	 140.400	    60.500	    36.600
   3.500	 144.000	    58.700	    36.600
   3.500	 147.600	    65.500	    36.600
   3.500	 151.200	    64.500	    36.600
   3.500	 154.800	    61.200	    36.600
   3.500	 158.400	    61.400	    36.600
   3.500	 162.000	    60.400	    36.600
   3.500	 165.600	    60.100	    36.600
   3.500	 169.200	    60.600	    36.600
   3.500	 172.800	    63.900	    36.600
   3.500	 176.400	    63.100	    36.600
   3.500	 180.000	    59.900	    36.600
   3.500	 183.600	    60.600	    36.600
   3.500	 187.200	    64.500	    36.600
   3.500	 190.800	    55.900	    36.600
   3.500	 194.400	    60.400	    36.600
   3.500	 198.000	    57.900	    36.600
   3.500	 201.600	    60.000	    36.600
   3.500	 205.200	    59.000	    36.600
   3.500	 208.800	    63.200	    36.600
   3.500	 212.400	    62.100	    36.600
   3.500	 216.000	    59.400	    36.600
   3.500	 219.600	    61.100	    36.600
   3.500	 223.200	    62.100	    36.600
   3.500	 226.800	    61.300	    36.600
   3.500	 230.400	    63.500	    36.600
   3.500	 234.000	    64.600	    36.600
   3.500	 237.600	    60.300	    36.600
   3.500	 241.200	    64.900	    36.600
   3.500	 244.800	    62.300	    36.600
   3.500	 248.400	    63.400	    36.600
   3.500	 252.000	    62.100	    36.600
   3.500	 255.600	    63.800	    36.600
   3.500	 259.200	    67.000	    36.600
   3.500	 262.800	    71.300	    36.600
   3.500	 266.400	    69.300	    36.600
   3.500	 270.000	    67.300	    36.600
   3.500	 273.600	    65.600	    36.600
   3.500	 277.200	    65.400	    36.600
   3.500	 280.800	    70.100	    36.600
   3.500	 284.400	    67.800	    36.600
   3.500	 288.000	    66.300	    36.600
   3.500	 291.600	    70.200	    36.600
   3.500	 295.200	    67.400	    36.600
   3.500	 298.800	    69.400	    36.600
   3.500	 302.400	    66.300	    36.600
   3.500	 306.000	    70.200	    36.600
   3.500	 309.600	    66.500	    36.600
   3.500	 313.200	    68.500	    36.600
   3.500	 316.800	    71.800	    36.600
   3.500	 320.400	    74.000	    36.600
   3.500	 324.000	    74.100	    36.600
   3.500	 327.600	    70.000	    36.600
   3.500	 331.200	    74.400	    36.600
   3.500	 334.800	    70.000	    36.600
   3.500	 338.400	    69.600	    36.600
   3.500	 342.000	    74.900	    36.600
   3.500	 345.600	    74.400	    36.600
   3.500	 349.200	    72.200	    36.600
   3.500	 352.800	    71.500	    36.600
   3.500	 356.400	    71.500	    36.600
   3.500	 360.000	    77.200	    36.600
   7.000	   0.000	    69.900	    38.900
   7.000	   3.600	    71.400	    38.900
   7.000	   7.200	    67.400	    38.900
   7.000	  10.800	    67.800	    38.900
   7.000	  14.400	    69.400	    38.900
   7.000	  18.000	    71.900	    38.900
   7.000	  21.600	    71.800	    38.900
   7.000	  25.200	    63.600	    38.900
   7.000	  28.800	    68.100	    38.900
   7.000	  32.400	    68.300	    38.900
   7.000	  36.000	    70.700	    38.900
   7.000	  39.600	    67.400	    38.900
   7.000	  43.200	    67.400	    38.900
   7.000	  46.800	    60.200	    38.900
   7.000	  50.400	    69.600	    38.900
   7.000	  54.000	    65.200	    38.900
   7.000	  57.600	    67.400	    38.900
   7.000	  61.200	    60.400	    38.900
   7.000	  64.800	    64.400	    38.900
   7.000	  68.400	    64.500	    38.900
   7.000	  72.000	    63.300	    38.900
   7.000	  75.600	    67.000	    38.900
   7.000	  79.200	    64.000	    38.900
   7.000	  82.800	    64.600	    38.900
   7.000	  86.400	    65.200	    38.900
   7.000	  90.000	    63.800	    38.900
   7.000	  93.600	    58.500	    38.900
   7.000	  97.200	    60.800	    38.900
   7.000	 100.800	    64.200	    38.900
   7.000	 104.400	    62.400	    38.900
   7.000	 108.000	    60.400	    38.900
   7.000	 111.600	    59.700	    38.900
   7.000	 115.200	    55.800	    38.900
   7.000	 118.800	    59.400	    38.900
   7.000	 122.400	    55.600	    38.900
   7.000	 126.000	    60.600	    38.900
   7.000	 129.600	    60.100	    38.900
   7.000	 133.200	    56.600	    38.900
   7.000	 136.800	    58.500	    38.900
   7.000	 140.400	    55.700	    38.900
   7.000	 144.000	    56.300	    38.900
   7.000	 147.600	    57.400	    38.900
   7.000	 151.200	    56.700	    38.900
   7.000	 154.800	    62.400	    38.900
   7.000	 158.400	    56.600	    38.900
   7.000	 162.000	    58.100	    38.900
   7.000	 165.600	    51.300	    38.900
   7.000	 169.200	    54.600	    38.900
   7.000	 172.800	    53.600	    38.900
   7.000	 176.400	    58.300	    38.900
   7.000	 180.000	    55.800	    38.900
   7.000	 183.600	    53.800	    38.900
   7.000	 187.200	    51.500	    38.900
   7.000	 190.800	    55.300	    38.900
   7.000	 194.400	    54.300	    38.900
   7.000	 198.000	    57.800	    38.900
   7.000	 201.600	    56.200	    38.900
   7.000	 205.200	    55.000	    38.900
   7.000	 208.800	    55.300	    38.900
   7.000	 212.400	    53.500	    38.900
   7.000	 216.000	    55.000	    38.900
   7.000	 219.600	    57.500	    38.900
   7.000	 223.200	    54.000	    38.900
   7.000	 226.800	    58.000	    38.900
   7.000	 230.400	    57.800	    38.900
   7.000	 234.000	    61.500	    38.900
   7.000	 237.600	    56.800	    38.900
   7.000	 241.200	    60.200	    38.900
   7.000	 244.800	    60.700	    38.900
   7.000	 248.400	    62.000	    38.900
   7.000	 252.000	    61.600	    38.900
   7.000	 255.600	    62.500	    38.900
   7.000	 259.200	    67.100	    38.900
   7.000	 262.800	    62.800	    38.900
   7.000	 266.400	    59.800	    38.900
   7.000	 270.000	    64.100	    38.900
   7.000	 273.600	    66.000	    38.900
   7.000	 277.200	    62.400	    38.900
   7.000	 280.800	    57.000	    38.900
   7.000	 284.400	    68.300	    38.900
   7.000	 288.000	    68.000	    38.900
   7.000	 291.600	    69.800	    38.900
   7.000	 295.200	    63.600	    38.900
   7.000	 298.800	    71.600	    38.900
   7.000	 302.400	    63.800	    38.900
   7.000	 306.000	    68.300	    38.900
   7.000	 309.600	    61.800	    38.900
   7.000	 313.200	    63.100	    38.900
   7.000	 316.800	    67.200	    38.900
   7.000	 320.400	    67.200	    38.900
   7.000	 324.000	    62.700	    38.900
   7.000	 327.600	    69.900	    38.900
   7.000	 331.200	    64.800	    38.900
   7.000	 334.800	    65.100	    38.900
   7.000	 338.400	    62.300	    38.900
   7.000	 342.000	    67.500	    38.900
   7.000	 345.600	    67.200	    38.900
   7.000	 349.200	    67.900	    38.900
   7.000	 352.800	    70.000	    38.900
   7.000	 356.400	    71.300	    38.900
   7.000	 360.000	    70.500	    38.900
  10.500	   0.000	    61.200	    35.400
  10.500	   3.600	    66.100	    35.400
  10.500	   7.200	    68.300	    35.400
  10.500	  10.800	    66.600	    35.400
  10.500	  14.400	    63.700	    35.400
  10.500	  18.000	    63.300	    35.400
  10.500	  21.600	    65.500	    35.400
  10.500	  25.200	    69.200	    35.400
  10.500	  28.800	    65.400	    35.400
  10.500	  32.400	    61.400	    35.400
  10.500	  36.000	    60.700	    35.400
  10.500	  39.600	    66.900	    35.400
  10.500	  43.200	    62.100	    35.400
  10.500	  46.800	    63.600	    35.400
  10.500	  50.400	    66.300	    35.400
  10.500	  54.000	    60.300	    35.400
  10.500	  57.600	    64.500	    35.400
  10.500	  61.200	    64.600	    35.400
  10.500	  64.800	    62.100	    35.400
  10.500	  68.400	    59.000	    35.400
  10.500	  72.000	    62.600	    35.400
  10.500	  75.600	    61.500	    35.400
  10.500	  79.200	    59.600	    35.400
  10.500	  82.800	    57.200	    35.400
  10.500	  86.400	    60.300	    35.400
  10.500	  90.000	    61.900	    35.400
  10.500	  93.600	    63.100	    35.400
  10.500	  97.200	    59.100	    35.400
  10.500	 100.800	    58.700	    35.400
  10.500	 104.400	    57.500	    35.400
  10.500	 108.000	    59.300	    35.400
  10.500	 111.600	    60.800	    35.400
  10.500	 115.200	    58.000	    35.400
  10.500	 118.800	    56.300	    35.400
  10.500	 122.400	    52.700	    35.400
  10.500	 126.000	    54.200	    35.400
  10.500	 129.600	    55.900	    35.400
  10.500	 133.200	    51.700	    35.400
  10.500	 136.800	    57.900	    35.400
  10.500	 140.400	    53.500	    35.400
  10.500	 144.000	    53.700	    35.400
  10.500	 147.600	    53.300	    35.400
  10.500	 151.200	    50.700	    35.400
  10.500	 154.800	    56.500	    35.400
  10.500	 158.400	    50.700	    35.400
  10.500	 162.000	    51.700	    35.400
  10.500	 165.600	    58.700	    35.400
  10.500	 169.200	    57.900	    35.400
  10.500	 172.800	    53.400	    35.400
  10.500	 176.400	    55.200	    35.400
  10.500	 180.000	    56.800	    35.400
  10.500	 183.600	    52.400	    35.400
  10.500	 187.200	    51.200	    35.400
  10.500	 190.800	    55.600	    35.400
  10.500	 194.400	    51.000	    35.400
  10.500	 198.000	    55.900	    35.400
  10.500	 201.600	    56.000	    35.400
  10.500	 205.200	    52.800	    35.400
  10.500	 208.800	    55.300	    35.400
  10.500	 212.400	    53.400	    35.400
  10.500	 216.000	    57.200	    35.400
  10.500	 219.600	    55.600	    35.400
  10.500	 223.200	    53.000	    35.400
  10.500	 226.800	    55.700	    35.400
  10.500	 230.400	    53.700	    35.400
  10.500	 234.000	    56.600	    35.400
  10.500	 237.600	    51.000	    35.400
  10.500	 241.200	    57.600	    35.400
  10.500	 244.800	    58.400	    35.400
  10.500	 248.400	    60.800	    35.400
  10.500	 252.000	    59.700	    35.400
  10.500	 255.600	    55.300	    35.400
  10.500	 259.200	    63.200	    35.400
  10.500	 262.800	    59.400	    35.400
  10.500	 266.400	    61.200	    35.400
  10.500	 270.000	    62.400	    35.400
  10.500	 273.600	    60.000	    35.400
  10.500	 277.200	    60.100	    35.400
  10.500	 280.800	    58.700	    35.400
  10.500	 284.400	    61.300	    35.400
  10.500	 288.000	    61.500	    35.400
  10.500	 291.600	    63.800	    35.400
  10.500	 295.200	    60.100	    35.400
  10.500	 298.800	    63.600	    35.400
  10.500	 302.400	    61.800	    35.400
  10.500	 306.000	    59.000	    35.400
  10.500	 309.600	    63.400	    35.400
  10.500	 313.200	    66.000	    35.400
  10.500	 316.800	    63.100	    35.400
  10.500	 320.400	    67.300	    35.400
  10.500	 324.000	    65.800	    35.400
  10.500	 327.600	    63.800	    35.400
  10.500	 331.200	    64.800	    35.400
  10.500	 334.800	    66.200	    35.400
  10.500	 338.400	    64.700	    35.400
  10.500	 342.000	    60.100	    35.400
  10.500	 345.600	    66.600	    35.400
  10.500	 349.200	    67.000	    35.400
  10.500	 352.800	    65.300	    35.400
  10.500	 356.400	    59.800	    35.400
  10.500	 360.000	    60.400	    35.400
  14.000	   0.000	    63.600	    38.100
  14.000	   3.600	    62.400	    38.100
  14.000	   7.200	    51.900	    38.100
  14.000	  10.800	    62.000	    38.100
  14.000	  14.400	    65.100	    38.100
  14.000	  18.000	    61.500	    38.100
  14.000	  21.600	    64.800	    38.100
  14.000	  25.200	    62.200	    38.100
  14.000	  28.800	    64.400	    38.100
  14.000	  32.400	    62.600	    38.100
  14.000	  36.000	    60.100	    38.100
  14.000	  39.600	    63.800	    38.100
  14.000	  43.200	    63.000	    38.100
  14.000	  46.800	    58.400	    38.100
  14.000	  50.400	    66.000	    38.100
  14.000	  54.000	    60.500	    38.100
  14.000	  57.600	    63.500	    38.100
  14.000	  61.200	    60.600	    38.100
  14.000	  64.800	    60.200	    38.100
  14.000	  68.400	    58.000	    38.100
  14.000	  72.000	    59.600	    38.100
  14.000	  75.600	    60.400	    38.100
  14.000	  79.200	    59.900	    38.100
  14.000	  82.800	    60.000	    38.100
  14.000	  86.400	    61.900	    38.100
  14.000	  90.000	    57.700	    38.100
  14.000	  93.600	    59.500	    38.100
  14.000	  97.200	    55.700	    38.100
  14.000	 100.800	    55.400	    38.100
  14.000	 104.400	    55.800	    38.100
  14.000	 108.000	    58.200	    38.100
  14.000	 111.600	    61.300	    38.100
  14.000	 115.200	    54.500	    38.100
  14.000	 118.800	    58.200	    38.100
  14.000	 122.400	    52.900	    38.100
  14.000	 126.000	    59.800	    38.100
  14.000	 129.600	    55.000	    38.100
  14.000	 133.200	    55.100	    38.100
  14.000	 136.800	    52.600	    38.100
  14.000	 140.400	    50.300	    38.100
  14.000	 144.000	    53.500	    38.100
  14.000	 147.600	    52.200	    38.100
  14.000	 151.200	    49.000	    38.100
  14.000	 154.800	    53.900	    38.100
  14.000	 158.400	    49.600	    38.100
  14.000	 162.000	    49.200	    38.100
  14.000	 165.600	    47.700	    38.100
  14.000	 169.200	    51.600	    38.100
  14.000	 172.800	    51.000	    38.100
  14.000	 176.400	    50.400	    38.100
  14.000	 180.000	    50.800	    38.100
  14.000	 183.600	    52.200	    38.100
  14.000	 187.200	    51.600	    38.100
  14.000	 190.800	    49.100	    38.100
  14.000	 194.400	    52.300	    38.100
  14.000	 198.000	    53.300	    38.100
  14.000	 201.600	    51.300	    38.100
  14.000	 205.200	    53.200	    38.100
  14.000	 208.800	    49.600	    38.100
  14.000	 212.400	    53.500	    38.100
  14.000	 216.000	    54.500	    38.100
  14.000	 219.600	    52.600	    38.100
  14.000	 223.200	    54.700	    38.100
  14.000	 226.800	    52.800	    38.100
  14.000	 230.400	    53.900	    38.100
  14.000	 234.000	    53.200	    38.100
  14.000	 237.600	    52.600	    38.100
  14.000	 241.200	    55.000	    38.100
  14.000	 244.800	    56.900	    38.100
  14.000	 248.400	    58.400	    38.100
  14.000	 252.000	    56.500	    38.100
  14.000	 255.600	    59.000	    38.100
  14.000	 259.200	    59.200	    38.100
  14.000	 262.800	    56.800	    38.100
  14.000	 266.400	    61.700	    38.100
  14.000	 270.000	    56.400	    38.100
  14.000	 273.600	    61.100	    38.100
  14.000	 277.200	    62.600	    38.100
  14.000	 280.800	    61.200	    38.100
  14.000	 284.400	    56.500	    38.100
  14.000	 288.000	    64.400	    38.100
  14.000	 291.600	    61.600	    38.100
  14.000	 295.200	    63.400	    38.100
  14.000	 298.800	    63.400	    38.100
  14.000	 302.400	    66.300	    38.100
