#MeasParameter
&HWS=C:\RAYFLEX\PTS.hws.HWS
&Sample=
&Material=
&Operator=USER_1
&Anode=Cr	&Filter=V	&kV=40	&mA=40
&Detector=ScintCount

#TextureParameter
&H=2	&K=0	&L=0
&Mode=REFL
&Raster=CIRCULAR
&AlphaStart=0.000	&AlphaEnd=70.000	&AlphaStep=3.500
&BetaStart=0.000	&BetaEnd=360.000	&BetaStep=3.600
&2Theta=67.000	&Window=0.000	&Step=0.000
&Time=10.0	&Counts=0
&BGLeft=65.000	&BGRight=0.000	&BGTime=10.0	&BGCounts=0

#Values
&NoValues=2121
   0.000	   0.000	   270.600	    36.800
   0.000	   3.600	   280.000	    36.800
   0.000	   7.200	   290.200	    36.800
   0.000	  10.800	   279.100	    36.800
   0.000	  14.400	   281.200	    36.800
   0.000	  18.000	   269.900	    36.800
   0.000	  21.600	   275.100	    36.800
   0.000	  25.200	   286.900	    36.800
   0.000	  28.800	   286.700	    36.800
   0.000	  32.400	   277.400	    36.800
   0.000	  36.000	   279.200	    36.800
   0.000	  39.600	   273.400	    36.800
   0.000	  43.200	   286.900	    36.800
   0.000	  46.800	   285.400	    36.800
   0.000	  50.400	   276.400	    36.800
   0.000	  54.000	   268.300	    36.800
   0.000	  57.600	   274.600	    36.800
   0.000	  61.200	   269.400	    36.800
   0.000	  64.800	   275.700	    36.800
   0.000	  68.400	   274.600	    36.800
   0.000	  72.000	   266.000	    36.800
   0.000	  75.600	   270.300	    36.800
   0.000	  79.200	   259.900	    36.800
   0.000	  82.800	   252.700	    36.800
   0.000	  86.400	   262.800	    36.800
   0.000	  90.000	   252.500	    36.800
   0.000	  93.600	   262.100	    36.800
   0.000	  97.200	   251.100	    36.800
   0.000	 100.800	   252.600	    36.800
   0.000	 104.400	   253.100	    36.800
   0.000	 108.000	   249.500	    36.800
   0.000	 111.600	   259.100	    36.800
   0.000	 115.200	   260.200	    36.800
   0.000	 118.800	   244.900	    36.800
   0.000	 122.400	   246.700	    36.800
   0.000	 126.000	   252.200	    36.800
   0.000	 129.600	   246.100	    36.800
   0.000	 133.200	   249.300	    36.800
   0.000	 136.800	   251.300	    36.800
   0.000	 140.400	   244.200	    36.800
   0.000	 144.000	   243.300	    36.800
   0.000	 147.600	   249.200	    36.800
   0.000	 151.200	   245.000	    36.800
   0.000	 154.800	   246.700	    36.800
   0.000	 158.400	   242.100	    36.800
   0.000	 162.000	   232.600	    36.800
   0.000	 165.600	   244.400	    36.800
   0.000	 169.200	   247.700	    36.800
   0.000	 172.800	   246.400	    36.800
   0.000	 176.400	   243.200	    36.800
   0.000	 180.000	   236.300	    36.800
   0.000	 183.600	   249.000	    36.800
   0.000	 187.200	   244.600	    36.800
   0.000	 190.800	   238.000	    36.800
   0.000	 194.400	   242.800	    36.800
   0.000	 198.000	   247.300	    36.800
   0.000	 201.600	   246.200	    36.800
   0.000	 205.200	   244.000	    36.800
   0.000	 208.800	   243.600	    36.800
   0.000	 212.400	   255.600	    36.800
   0.000	 216.000	   241.800	    36.800
   0.000	 219.600	   251.600	    36.800
   0.000	 223.200	   244.400	    36.800
   0.000	 226.800	   242.700	    36.800
   0.000	 230.400	   246.900	    36.800
   0.000	 234.000	   253.300	    36.800
   0.000	 237.600	   250.000	    36.800
   0.000	 241.200	   255.000	    36.800
   0.000	 244.800	   252.400	    36.800
   0.000	 248.400	   255.000	    36.800
   0.000	 252.000	   254.800	    36.800
   0.000	 255.600	   254.100	    36.800
   0.000	 259.200	   254.600	    36.800
   0.000	 262.800	   253.300	    36.800
   0.000	 266.400	   256.300	    36.800
   0.000	 270.000	   258.100	    36.800
   0.000	 273.600	   261.200	    36.800
   0.000	 277.200	   259.500	    36.800
   0.000	 280.800	   266.200	    36.800
   0.000	 284.400	   260.200	    36.800
   0.000	 288.000	   263.200	    36.800
   0.000	 291.600	   260.200	    36.800
   0.000	 295.200	   265.000	    36.800
   0.000	 298.800	   259.800	    36.800
   0.000	 302.400	   264.800	    36.800
   0.000	 306.000	   271.600	    36.800
   0.000	 309.600	   278.800	    36.800
   0.000	 313.200	   264.300	    36.800
   0.000	 316.800	   275.200	    36.800
   0.000	 320.400	   268.000	    36.800
   0.000	 324.000	   270.300	    36.800
   0.000	 327.600	   274.300	    36.800
   0.000	 331.200	   279.000	    36.800
   0.000	 334.800	   287.500	    36.800
   0.000	 338.400	   286.000	    36.800
   0.000	 342.000	   282.700	    36.800
   0.000	 345.600	   276.300	    36.800
   0.000	 349.200	   273.800	    36.800
   0.000	 352.800	   278.600	    36.800
   0.000	 356.400	   285.000	    36.800
   0.000	 360.000	   278.000	    36.800
   3.500	   0.000	   282.300	    38.300
   3.500	   3.600	   274.700	    38.300
   3.500	   7.200	   270.000	    38.300
   3.500	  10.800	   262.100	    38.300
   3.500	  14.400	   263.800	    38.300
   3.500	  18.000	   267.300	    38.300
   3.500	  21.600	   261.400	    38.300
   3.500	  25.200	   258.200	    38.300
   3.500	  28.800	   263.600	    38.300
   3.500	  32.400	   258.900	    38.300
   3.500	  36.000	   252.600	    38.300
   3.500	  39.600	   253.500	    38.300
   3.500	  43.200	   257.200	    38.300
   3.500	  46.800	   254.100	    38.300
   3.500	  50.400	   255.000	    38.300
   3.500	  54.000	   241.400	    38.300
   3.500	  57.600	   249.100	    38.300
   3.500	  61.200	   245.900	    38.300
   3.500	  64.800	   240.500	    38.300
   3.500	  68.400	   234.600	    38.300
   3.500	  72.000	   241.700	    38.300
   3.500	  75.600	   236.200	    38.300
   3.500	  79.200	   244.200	    38.300
   3.500	  82.800	   240.500	    38.300
   3.500	  86.400	   237.100	    38.300
   3.500	  90.000	   241.600	    38.300
   3.500	  93.600	   238.300	    38.300
   3.500	  97.200	   237.500	    38.300
   3.500	 100.800	   231.400	    38.300
   3.500	 104.400	   229.400	    38.300
   3.500	 108.000	   225.200	    38.300
   3.500	 111.600	   212.900	    38.300
   3.500	 115.200	   226.600	    38.300
   3.500	 118.800	   221.000	    38.300
   3.500	 122.400	   223.800	    38.300
   3.500	 126.000	   217.500	    38.300
   3.500	 129.600	   219.100	    38.300
   3.500	 133.200	   228.300	    38.300
   3.500	 136.800	   222.700	    38.300
   3.500	 140.400	   209.400	    38.300
   3.500	 144.000	   225.700	    38.300
   3.500	 147.600	   211.300	    38.300
   3.500	 151.200	   209.300	    38.300
   3.500	 154.800	   221.700	    38.300
   3.500	 158.400	   223.200	    38.300
   3.500	 162.000	   219.800	    38.300
   3.500	 165.600	   215.200	    38.300
   3.500	 169.200	   222.200	    38.300
   3.500	 172.800	   214.600	    38.300
   3.500	 176.400	   212.700	    38.300
   3.500	 180.000	   229.500	    38.300
   3.500	 183.600	   225.400	    38.300
   3.500	 187.200	   230.100	    38.300
   3.500	 190.800	   222.900	    38.300
   3.500	 194.400	   231.300	    38.300
   3.500	 198.000	   226.000	    38.300
   3.500	 201.600	   228.500	    38.300
   3.500	 205.200	   228.300	    38.300
   3.500	 208.800	   235.400	    38.300
   3.500	 212.400	   233.600	    38.300
   3.500	 216.000	   238.700	    38.300
   3.500	 219.600	   234.300	    38.300
   3.500	 223.200	   246.300	    38.300
   3.500	 226.800	   239.400	    38.300
   3.500	 230.400	   242.300	    38.300
   3.500	 234.000	   241.300	    38.300
   3.500	 237.600	   249.100	    38.300
   3.500	 241.200	   251.100	    38.300
   3.500	 244.800	   256.900	    38.300
   3.500	 248.400	   251.200	    38.300
   3.500	 252.000	   253.900	    38.300
   3.500	 255.600	   260.300	    38.300
   3.500	 259.200	   249.200	    38.300
   3.500	 262.800	   247.700	    38.300
   3.500	 266.400	   265.100	    38.300
   3.500	 270.000	   269.300	    38.300
   3.500	 273.600	   269.100	    38.300
   3.500	 277.200	   267.100	    38.300
   3.500	 280.800	   258.000	    38.300
   3.500	 284.400	   267.400	    38.300
   3.500	 288.000	   271.500	    38.300
   3.500	 291.600	   273.100	    38.300
   3.500	 295.200	   269.300	    38.300
   3.500	 298.800	   271.900	    38.300
   3.500	 302.400	   280.900	    38.300
   3.500	 306.000	   276.900	    38.300
   3.500	 309.600	   279.700	    38.300
   3.500	 313.200	   276.000	    38.300
   3.500	 316.800	   274.200	    38.300
   3.500	 320.400	   277.800	    38.300
   3.500	 324.000	   273.200	    38.300
   3.500	 327.600	   272.000	    38.300
   3.500	 331.200	   274.600	    38.300
   3.500	 334.800	   281.100	    38.300
   3.500	 338.400	   269.900	    38.300
   3.500	 342.000	   277.100	    38.300
   3.500	 345.600	   272.400	    38.300
   3.500	 349.200	   277.400	    38.300
   3.500	 352.800	   274.800	    38.300
   3.500	 356.400	   272.400	    38.300
   3.500	 360.000	   272.500	    38.300
   7.000	   0.000	   239.100	    39.500
   7.000	   3.600	   241.900	    39.500
   7.000	   7.200	   236.600	    39.500
   7.000	  10.800	   239.400	    39.500
   7.000	  14.400	   233.000	    39.500
   7.000	  18.000	   238.700	    39.500
   7.000	  21.600	   221.500	    39.500
   7.000	  25.200	   238.500	    39.500
   7.000	  28.800	   228.500	    39.500
   7.000	  32.400	   227.500	    39.500
   7.000	  36.000	   230.900	    39.500
   7.000	  39.600	   234.700	    39.500
   7.000	  43.200	   226.800	    39.500
   7.000	  46.800	   218.500	    39.500
   7.000	  50.400	   218.400	    39.500
   7.000	  54.000	   212.400	    39.500
   7.000	  57.600	   210.200	    39.500
   7.000	  61.200	   209.600	    39.500
   7.000	  64.800	   211.800	    39.500
   7.000	  68.400	   212.500	    39.500
   7.000	  72.000	   213.600	    39.500
   7.000	  75.600	   198.900	    39.500
   7.000	  79.200	   196.400	    39.500
   7.000	  82.800	   202.100	    39.500
   7.000	  86.400	   198.100	    39.500
   7.000	  90.000	   191.900	    39.500
   7.000	  93.600	   204.100	    39.500
   7.000	  97.200	   200.600	    39.500
   7.000	 100.800	   197.800	    39.500
   7.000	 104.400	   199.200	    39.500
   7.000	 108.000	   194.400	    39.500
   7.000	 111.600	   187.300	    39.500
   7.000	 115.200	   201.100	    39.500
   7.000	 118.800	   187.900	    39.500
   7.000	 122.400	   183.800	    39.500
   7.000	 126.000	   183.900	    39.500
   7.000	 129.600	   194.500	    39.500
   7.000	 133.200	   189.700	    39.500
   7.000	 136.800	   198.700	    39.500
   7.000	 140.400	   190.000	    39.500
   7.000	 144.000	   194.200	    39.500
   7.000	 147.600	   190.400	    39.500
   7.000	 151.200	   180.600	    39.500
   7.000	 154.800	   190.400	    39.500
   7.000	 158.400	   187.700	    39.500
   7.000	 162.000	   187.100	    39.500
   7.000	 165.600	   201.000	    39.500
   7.000	 169.200	   184.300	    39.500
   7.000	 172.800	   195.900	    39.500
   7.000	 176.400	   202.200	    39.500
   7.000	 180.000	   191.600	    39.500
   7.000	 183.600	   201.500	    39.500
   7.000	 187.200	   197.300	    39.500
   7.000	 190.800	   202.400	    39.500
   7.000	 194.400	   198.700	    39.500
   7.000	 198.000	   205.800	    39.500
   7.000	 201.600	   203.200	    39.500
   7.000	 205.200	   202.200	    39.500
   7.000	 208.800	   213.700	    39.500
   7.000	 212.400	   207.900	    39.500
   7.000	 216.000	   203.500	    39.500
   7.000	 219.600	   219.900	    39.500
   7.000	 223.200	   221.600	    39.500
   7.000	 226.800	   212.100	    39.500
   7.000	 230.400	   220.800	    39.500
   7.000	 234.000	   218.500	    39.500
   7.000	 237.600	   222.700	    39.500
   7.000	 241.200	   231.500	    39.500
   7.000	 244.800	   232.200	    39.500
   7.000	 248.400	   226.400	    39.500
   7.000	 252.000	   232.500	    39.500
   7.000	 255.600	   243.000	    39.500
   7.000	 259.200	   245.100	    39.500
   7.000	 262.800	   237.200	    39.500
   7.000	 266.400	   244.300	    39.500
   7.000	 270.000	   249.800	    39.500
   7.000	 273.600	   251.400	    39.500
   7.000	 277.200	   245.600	    39.500
   7.000	 280.800	   259.900	    39.500
   7.000	 284.400	   251.300	    39.500
   7.000	 288.000	   257.800	    39.500
   7.000	 291.600	   256.600	    39.500
   7.000	 295.200	   244.200	    39.500
   7.000	 298.800	   249.600	    39.500
   7.000	 302.400	   254.200	    39.500
   7.000	 306.000	   263.600	    39.500
   7.000	 309.600	   255.400	    39.500
   7.000	 313.200	   253.000	    39.500
   7.000	 316.800	   262.700	    39.500
   7.000	 320.400	   264.900	    39.500
   7.000	 324.000	   263.000	    39.500
   7.000	 327.600	   255.700	    39.500
   7.000	 331.200	   259.200	    39.500
   7.000	 334.800	   265.000	    39.500
   7.000	 338.400	   259.300	    39.500
   7.000	 342.000	   262.400	    39.500
   7.000	 345.600	   249.800	    39.500
   7.000	 349.200	   255.700	    39.500
   7.000	 352.800	   245.900	    39.500
   7.000	 356.400	   246.500	    39.500
   7.000	 360.000	   252.200	    39.500
  10.500	   0.000	   216.300	    33.900
  10.500	   3.600	   200.000	    33.900
  10.500	   7.200	   214.500	    33.900
  10.500	  10.800	   201.300	    33.900
  10.500	  14.400	   199.300	    33.900
  10.500	  18.000	   201.700	    33.900
  10.500	  21.600	   198.800	    33.900
  10.500	  25.200	   199.100	    33.900
  10.500	  28.800	   194.400	    33.900
  10.500	  32.400	   189.400	    33.900
  10.500	  36.000	   198.100	    33.900
  10.500	  39.600	   196.500	    33.900
  10.500	  43.200	   185.600	    33.900
  10.500	  46.800	   192.800	    33.900
  10.500	  50.400	   183.500	    33.900
  10.500	  54.000	   187.400	    33.900
  10.500	  57.600	   187.600	    33.900
  10.500	  61.200	   187.900	    33.900
  10.500	  64.800	   177.400	    33.900
  10.500	  68.400	   181.800	    33.900
  10.500	  72.000	   178.900	    33.900
  10.500	  75.600	   168.800	    33.900
  10.500	  79.200	   160.300	    33.900
  10.500	  82.800	   179.200	    33.900
  10.500	  86.400	   165.500	    33.900
  10.500	  90.000	   172.400	    33.900
  10.500	  93.600	   169.800	    33.900
  10.500	  97.200	   170.600	    33.900
  10.500	 100.800	   167.900	    33.900
  10.500	 104.400	   152.100	    33.900
  10.500	 108.000	   168.800	    33.900
  10.500	 111.600	   157.200	    33.900
  10.500	 115.200	   161.600	    33.900
  10.500	 118.800	   157.700	    33.900
  10.500	 122.400	   160.700	    33.900
  10.500	 126.000	   158.000	    33.900
  10.500	 129.600	   157.500	    33.900
  10.500	 133.200	   163.300	    33.900
  10.500	 136.800	   161.100	    33.900
  10.500	 140.400	   159.500	    33.900
  10.500	 144.000	   154.400	    33.900
  10.500	 147.600	   163.100	    33.900
  10.500	 151.200	   164.600	    33.900
  10.500	 154.800	   162.400	    33.900
  10.500	 158.400	   156.600	    33.900
  10.500	 162.000	   152.500	    33.900
  10.500	 165.600	   163.100	    33.900
  10.500	 169.200	   153.900	    33.900
  10.500	 172.800	   166.200	    33.900
  10.500	 176.400	   163.600	    33.900
  10.500	 180.000	   164.200	    33.900
  10.500	 183.600	   161.200	    33.900
  10.500	 187.200	   161.800	    33.900
  10.500	 190.800	   170.000	    33.900
  10.500	 194.400	   163.900	    33.900
  10.500	 198.000	   172.900	    33.900
  10.500	 201.600	   165.200	    33.900
  10.500	 205.200	   174.400	    33.900
  10.500	 208.800	   177.000	    33.900
  10.500	 212.400	   170.300	    33.900
  10.500	 216.000	   185.600	    33.900
  10.500	 219.600	   182.500	    33.900
  10.500	 223.200	   189.400	    33.900
  10.500	 226.800	   186.100	    33.900
  10.500	 230.400	   192.000	    33.900
  10.500	 234.000	   194.800	    33.900
  10.500	 237.600	   193.900	    33.900
  10.500	 241.200	   199.300	    33.900
  10.500	 244.800	   188.900	    33.900
  10.500	 248.400	   194.600	    33.900
  10.500	 252.000	   197.700	    33.900
  10.500	 255.600	   200.800	    33.900
  10.500	 259.200	   214.800	    33.900
  10.500	 262.800	   211.400	    33.900
  10.500	 266.400	   209.100	    33.900
  10.500	 270.000	   214.300	    33.900
  10.500	 273.600	   212.700	    33.900
  10.500	 277.200	   222.200	    33.900
  10.500	 280.800	   215.300	    33.900
  10.500	 284.400	   216.400	    33.900
  10.500	 288.000	   219.500	    33.900
  10.500	 291.600	   222.700	    33.900
  10.500	 295.200	   223.600	    33.900
  10.500	 298.800	   231.600	    33.900
  10.500	 302.400	   221.400	    33.900
  10.500	 306.000	   225.200	    33.900
  10.500	 309.600	   231.700	    33.900
  10.500	 313.200	   219.400	    33.900
  10.500	 316.800	   220.600	    33.900
  10.500	 320.400	   231.300	    33.900
  10.500	 324.000	   221.600	    33.900
  10.500	 327.600	   218.000	    33.900
  10.500	 331.200	   216.100	    33.900
  10.500	 334.800	   224.900	    33.900
  10.500	 338.400	   223.400	    33.900
  10.500	 342.000	   223.900	    33.900
  10.500	 345.600	   213.400	    33.900
  10.500	 349.200	   216.500	    33.900
  10.500	 352.800	   216.000	    33.900
  10.500	 356.400	   205.700	    33.900
  10.500	 360.000	   208.800	    33.900
  14.000	   0.000	   180.800	    35.400
  14.000	   3.600	   170.700	    35.400
  14.000	   7.200	   174.700	    35.400
  14.000	  10.800	   165.600	    35.400
  14.000	  14.400	   164.000	    35.400
  14.000	  18.000	   163.700	    35.400
  14.000	  21.600	   166.400	    35.400
  14.000	  25.200	   163.800	    35.400
  14.000	  28.800	   167.200	    35.400
  14.000	  32.400	   164.900	    35.400
  14.000	  36.000	   157.100	    35.400
  14.000	  39.600	   156.300	    35.400
  14.000	  43.200	   152.600	    35.400
  14.000	  46.800	   153.100	    35.400
  14.000	  50.400	   155.500	    35.400
  14.000	  54.000	   156.300	    35.400
  14.000	  57.600	   152.000	    35.400
  14.000	  61.200	   149.800	    35.400
  14.000	  64.800	   152.700	    35.400
  14.000	  68.400	   153.000	    35.400
  14.000	  72.000	   145.800	    35.400
  14.000	  75.600	   144.900	    35.400
  14.000	  79.200	   147.400	    35.400
  14.000	  82.800	   146.900	    35.400
  14.000	  86.400	   144.400	    35.400
  14.000	  90.000	   142.600	    35.400
  14.000	  93.600	   134.300	    35.400
  14.000	  97.200	   139.500	    35.400
  14.000	 100.800	   131.200	    35.400
  14.000	 104.400	   138.200	    35.400
  14.000	 108.000	   130.400	    35.400
  14.000	 111.600	   134.500	    35.400
  14.000	 115.200	   128.500	    35.400
  14.000	 118.800	   129.300	    35.400
  14.000	 122.400	   132.000	    35.400
  14.000	 126.000	   131.700	    35.400
  14.000	 129.600	   123.700	    35.400
  14.000	 133.200	   133.300	    35.400
  14.000	 136.800	   134.700	    35.400
  14.000	 140.400	   135.300	    35.400
  14.000	 144.000	   130.400	    35.400
  14.000	 147.600	   133.000	    35.400
  14.000	 151.200	   130.000	    35.400
  14.000	 154.800	   136.000	    35.400
  14.000	 158.400	   130.100	    35.400
  14.000	 162.000	   122.200	    35.400
  14.000	 165.600	   125.500	    35.400
  14.000	 169.200	   130.800	    35.400
  14.000	 172.800	   134.500	    35.400
  14.000	 176.400	   132.300	    35.400
  14.000	 180.000	   134.000	    35.400
  14.000	 183.600	   131.300	    35.400
  14.000	 187.200	   128.300	    35.400
  14.000	 190.800	   138.000	    35.400
  14.000	 194.400	   138.500	    35.400
  14.000	 198.000	   141.500	    35.400
  14.000	 201.600	   137.200	    35.400
  14.000	 205.200	   147.400	    35.400
  14.000	 208.800	   147.800	    35.400
  14.000	 212.400	   145.300	    35.400
  14.000	 216.000	   152.900	    35.400
  14.000	 219.600	   154.700	    35.400
  14.000	 223.200	   152.600	    35.400
  14.000	 226.800	   162.900	    35.400
  14.000	 230.400	   156.100	    35.400
  14.000	 234.000	   166.200	    35.400
  14.000	 237.600	   164.100	    35.400
  14.000	 241.200	   168.200	    35.400
  14.000	 244.800	   175.300	    35.400
  14.000	 248.400	   169.500	    35.400
  14.000	 252.000	   177.700	    35.400
  14.000	 255.600	   168.500	    35.400
  14.000	 259.200	   174.700	    35.400
  14.000	 262.800	   183.200	    35.400
  14.000	 266.400	   183.300	    35.400
  14.000	 270.000	   182.300	    35.400
  14.000	 273.600	   184.400	    35.400
  14.000	 277.200	   182.700	    35.400
  14.000	 280.800	   187.000	    35.400
  14.000	 284.400	   192.300	    35.400
  14.000	 288.000	   189.900	    35.400
  14.000	 291.600	   189.500	    35.400
  14.000	 295.200	   184.000	    35.400
  14.000	 298.800	   191.300	    35.400
  14.000	 302.400	   182.400	    35.400
