; E:\data\texture\Zhangxinming\lili\Deepdrawing1_R.raw(Diffrac Plus V1.01 file) converted by XCH V1.0
_FILEVERSION=2
_SITE='China'
_USER='Administrator'
_GONIOMETER_CODE=3349
; D8 Theta/Theta; Special
_SAMPLE_CHANGER_CODE=0
_ATTACHMENTS_CODE=0
_GONIOMETER_RADIUS=250.000000
_FIXED_DIVSLIT=0.600000
_FIXED_SAMPLESLIT=0.000000
_FIXED_DETSLIT=0.100000
_MONOCHROMATOR=0
; None
_THIN_FILM='N'
_BETA_FILTER='Y'
_FIXED_ANTISLIT=0.600000
_ANALYZER_CODE=0
; None
_DATEMEASURED='24-Sep-2008 10:09:34'
_WL_UNIT='A'
_WL1=1.540600
_WL2=1.544390
_WL3=1.392220
_WLRATIO=0.500000
_ANODE='Cu'
; (Data for Range number 1)
_DRIVE='PHI'
_STEPTIME=1.000000
_STEPSIZE=5.000000
_STEPMODE='C'
_START=0.000000
_THETA=17.200001
_2THETA=34.400002
_KHI=0.000000
_PHI=0.000000
_X=0.876000
_Y=9.952000
_Z=0.085500
_DIVERGENCE=0.200000
_ANTISCATTER=0.200000
_DETECTOR=1
; S.C.
_HV=584.000000
_GAIN=80.000000
_LLD=0.494000
_ULD=2.094000
_DETECTORSLIT='unkn'
_AUX1=0.000000
_AUX2=0.000000
_AUX3=0.000000
_TIMESTARTED=15.000000
_TEMP_RATE=0.000000
_TEMP_DELAY=0.000000
_KV=40
_MA=40
_RANGE_WL=1.540600
_3DPLANE=0
_2THETACPS
   0.0000    2436.0
   5.0000    2464.0
  10.0000    2412.0
  15.0000    2319.0
  20.0000    2270.0
  25.0000    2263.0
  30.0000    2276.0
  35.0000    2238.0
  40.0000    2180.0
  45.0000    2196.0
  50.0000    2314.0
  55.0000    2407.0
  60.0000    2656.0
  65.0000    2644.0
  70.0000    2537.0
  75.0000    2475.0
  80.0000    2321.0
  85.0000    2329.0
  90.0000    2228.0
  95.0000    2222.0
 100.0000    2162.0
 105.0000    2260.0
 110.0000    2156.0
 115.0000    2132.0
 120.0000    2179.0
 125.0000    2200.0
 130.0000    2184.0
 135.0000    2018.0
 140.0000    2122.0
 145.0000    2142.0
 150.0000    2004.0
 155.0000    1932.0
 160.0000    1950.0
 165.0000    1898.0
 170.0000    1855.0
 175.0000    1953.0
 180.0000    1970.0
 185.0000    2005.0
 190.0000    1980.0
 195.0000    2079.0
 200.0000    2237.0
 205.0000    2182.0
 210.0000    2263.0
 215.0000    2216.0
 220.0000    2464.0
 225.0000    2286.0
 230.0000    2331.0
 235.0000    2418.0
 240.0000    2654.0
 245.0000    2609.0
 250.0000    2595.0
 255.0000    2484.0
 260.0000    2510.0
 265.0000    2477.0
 270.0000    2560.0
 275.0000    2786.0
 280.0000    2906.0
 285.0000    2879.0
 290.0000    2692.0
 295.0000    2556.0
 300.0000    2465.0
 305.0000    2366.0
 310.0000    2445.0
 315.0000    2537.0
 320.0000    2561.0
 325.0000    2456.0
 330.0000    2295.0
 335.0000    2261.0
 340.0000    2461.0
 345.0000    2538.0
 350.0000    2588.0
 355.0000    2461.0
; (Data for Range number 2)
_DRIVE='PHI'
_STEPTIME=1.000000
_STEPSIZE=5.000000
_STEPMODE='C'
_START=0.000000
_THETA=17.200001
_2THETA=34.400002
_KHI=5.000000
_PHI=0.000000
_X=0.876000
_Y=9.952000
_Z=0.085500
_DIVERGENCE=0.200000
_ANTISCATTER=0.200000
_DETECTOR=1
; S.C.
_HV=584.000000
_GAIN=80.000000
_LLD=0.494000
_ULD=2.094000
_DETECTORSLIT='unkn'
_AUX1=0.000000
_AUX2=0.000000
_AUX3=0.000000
_TIMESTARTED=93.000000
_TEMP_RATE=0.000000
_TEMP_DELAY=0.000000
_KV=40
_MA=40
_RANGE_WL=1.540600
_3DPLANE=0
_2THETACPS
   0.0000    2829.0
   5.0000    2649.0
  10.0000    2378.0
  15.0000    2139.0
  20.0000    2176.0
  25.0000    2181.0
  30.0000    2337.0
  35.0000    2384.0
  40.0000    2226.0
  45.0000    2202.0
  50.0000    2346.0
  55.0000    2430.0
  60.0000    2440.0
  65.0000    2414.0
  70.0000    2330.0
  75.0000    2215.0
  80.0000    2220.0
  85.0000    2348.0
  90.0000    2367.0
  95.0000    2309.0
 100.0000    2388.0
 105.0000    2344.0
 110.0000    2349.0
 115.0000    2386.0
 120.0000    2523.0
 125.0000    2436.0
 130.0000    2503.0
 135.0000    2335.0
 140.0000    2359.0
 145.0000    2247.0
 150.0000    2295.0
 155.0000    2247.0
 160.0000    2239.0
 165.0000    2187.0
 170.0000    2165.0
 175.0000    2242.0
 180.0000    2389.0
 185.0000    2353.0
 190.0000    2342.0
 195.0000    2308.0
 200.0000    2409.0
 205.0000    2658.0
 210.0000    2663.0
 215.0000    2604.0
 220.0000    2609.0
 225.0000    2587.0
 230.0000    2657.0
 235.0000    2590.0
 240.0000    2628.0
 245.0000    2366.0
 250.0000    2363.0
 255.0000    2357.0
 260.0000    2563.0
 265.0000    2500.0
 270.0000    2636.0
 275.0000    2874.0
 280.0000    3062.0
 285.0000    2851.0
 290.0000    2557.0
 295.0000    2469.0
 300.0000    2471.0
 305.0000    2424.0
 310.0000    2242.0
 315.0000    2117.0
 320.0000    2142.0
 325.0000    1991.0
 330.0000    1973.0
 335.0000    1988.0
 340.0000    2113.0
 345.0000    2171.0
 350.0000    2405.0
 355.0000    2529.0
; (Data for Range number 3)
_DRIVE='PHI'
_STEPTIME=1.000000
_STEPSIZE=5.000000
_STEPMODE='C'
_START=0.000000
_THETA=17.200001
_2THETA=34.400002
_KHI=10.000000
_PHI=0.000000
_X=0.876000
_Y=9.952000
_Z=0.085500
_DIVERGENCE=0.200000
_ANTISCATTER=0.200000
_DETECTOR=1
; S.C.
_HV=584.000000
_GAIN=80.000000
_LLD=0.494000
_ULD=2.094000
_DETECTORSLIT='unkn'
_AUX1=0.000000
_AUX2=0.000000
_AUX3=0.000000
_TIMESTARTED=171.000000
_TEMP_RATE=0.000000
_TEMP_DELAY=0.000000
_KV=40
_MA=40
_RANGE_WL=1.540600
_3DPLANE=0
_2THETACPS
   0.0000    2546.0
   5.0000    2465.0
  10.0000    2064.0
  15.0000    1998.0
  20.0000    1930.0
  25.0000    1890.0
  30.0000    1905.0
  35.0000    2154.0
  40.0000    2045.0
  45.0000    2120.0
  50.0000    2103.0
  55.0000    2097.0
  60.0000    2126.0
  65.0000    2184.0
  70.0000    2235.0
  75.0000    2382.0
  80.0000    2546.0
  85.0000    2527.0
  90.0000    2551.0
  95.0000    2599.0
 100.0000    2644.0
 105.0000    2989.0
 110.0000    2954.0
 115.0000    3097.0
 120.0000    2998.0
 125.0000    2985.0
 130.0000    2921.0
 135.0000    2712.0
 140.0000    2640.0
 145.0000    2565.0
 150.0000    2416.0
 155.0000    2521.0
 160.0000    2282.0
 165.0000    2185.0
 170.0000    2281.0
 175.0000    2449.0
 180.0000    2302.0
 185.0000    2198.0
 190.0000    2211.0
 195.0000    2103.0
 200.0000    2141.0
 205.0000    2293.0
 210.0000    2415.0
 215.0000    2481.0
 220.0000    2835.0
 225.0000    2656.0
 230.0000    2653.0
 235.0000    2572.0
 240.0000    2403.0
 245.0000    2328.0
 250.0000    2390.0
 255.0000    2460.0
 260.0000    2451.0
 265.0000    2651.0
 270.0000    2766.0
 275.0000    2813.0
 280.0000    2823.0
 285.0000    2468.0
 290.0000    2494.0
 295.0000    2654.0
 300.0000    2783.0
 305.0000    2813.0
 310.0000    2778.0
 315.0000    2718.0
 320.0000    2569.0
 325.0000    2559.0
 330.0000    2679.0
 335.0000    2756.0
 340.0000    2601.0
 345.0000    2578.0
 350.0000    2519.0
 355.0000    2573.0
; (Data for Range number 4)
_DRIVE='PHI'
_STEPTIME=1.000000
_STEPSIZE=5.000000
_STEPMODE='C'
_START=0.000000
_THETA=17.200001
_2THETA=34.400002
_KHI=15.000000
_PHI=0.000000
_X=0.876000
_Y=9.952000
_Z=0.085500
_DIVERGENCE=0.200000
_ANTISCATTER=0.200000
_DETECTOR=1
; S.C.
_HV=584.000000
_GAIN=80.000000
_LLD=0.494000
_ULD=2.094000
_DETECTORSLIT='unkn'
_AUX1=0.000000
_AUX2=0.000000
_AUX3=0.000000
_TIMESTARTED=250.000000
_TEMP_RATE=0.000000
_TEMP_DELAY=0.000000
_KV=40
_MA=40
_RANGE_WL=1.540600
_3DPLANE=0
_2THETACPS
   0.0000    2251.0
   5.0000    2222.0
  10.0000    2237.0
  15.0000    1857.0
  20.0000    1710.0
  25.0000    1803.0
  30.0000    2001.0
  35.0000    2204.0
  40.0000    2261.0
  45.0000    2297.0
  50.0000    2263.0
  55.0000    2382.0
  60.0000    2430.0
  65.0000    2402.0
  70.0000    2476.0
  75.0000    2576.0
  80.0000    2609.0
  85.0000    2901.0
  90.0000    2861.0
  95.0000    2798.0
 100.0000    2824.0
 105.0000    2941.0
 110.0000    2741.0
 115.0000    2562.0
 120.0000    2503.0
 125.0000    2508.0
 130.0000    2503.0
 135.0000    2259.0
 140.0000    2227.0
 145.0000    2279.0
 150.0000    2192.0
 155.0000    2290.0
 160.0000    1888.0
 165.0000    1726.0
 170.0000    1720.0
 175.0000    1897.0
 180.0000    1736.0
 185.0000    1904.0
 190.0000    1853.0
 195.0000    1874.0
 200.0000    2031.0
 205.0000    2071.0
 210.0000    2290.0
 215.0000    2554.0
 220.0000    2632.0
 225.0000    2640.0
 230.0000    2419.0
 235.0000    2322.0
 240.0000    2135.0
 245.0000    2111.0
 250.0000    2137.0
 255.0000    2256.0
 260.0000    2460.0
 265.0000    2627.0
 270.0000    2609.0
 275.0000    2632.0
 280.0000    2579.0
 285.0000    2746.0
 290.0000    2720.0
 295.0000    2864.0
 300.0000    2879.0
 305.0000    2716.0
 310.0000    2677.0
 315.0000    2510.0
 320.0000    2316.0
 325.0000    2136.0
 330.0000    2099.0
 335.0000    2106.0
 340.0000    1986.0
 345.0000    2077.0
 350.0000    2122.0
 355.0000    2262.0
; (Data for Range number 5)
_DRIVE='PHI'
_STEPTIME=1.000000
_STEPSIZE=5.000000
_STEPMODE='C'
_START=0.000000
_THETA=17.200001
_2THETA=34.400002
_KHI=20.000000
_PHI=0.000000
_X=0.876000
_Y=9.952000
_Z=0.085500
_DIVERGENCE=0.200000
_ANTISCATTER=0.200000
_DETECTOR=1
; S.C.
_HV=584.000000
_GAIN=80.000000
_LLD=0.494000
_ULD=2.094000
_DETECTORSLIT='unkn'
_AUX1=0.000000
_AUX2=0.000000
_AUX3=0.000000
_TIMESTARTED=328.000000
_TEMP_RATE=0.000000
_TEMP_DELAY=0.000000
_KV=40
_MA=40
_RANGE_WL=1.540600
_3DPLANE=0
_2THETACPS
   0.0000    1624.0
   5.0000    1748.0
  10.0000    1867.0
  15.0000    2047.0
  20.0000    2053.0
  25.0000    1828.0
  30.0000    1801.0
  35.0000    1775.0
  40.0000    1862.0
  45.0000    1724.0
  50.0000    1912.0
  55.0000    2291.0
  60.0000    2454.0
  65.0000    2266.0
  70.0000    2250.0
  75.0000    2260.0
  80.0000    2365.0
  85.0000    2540.0
  90.0000    2719.0
  95.0000    2830.0
 100.0000    2673.0
 105.0000    2653.0
 110.0000    2335.0
 115.0000    2949.0
 120.0000    2533.0
 125.0000    2499.0
 130.0000    2466.0
 135.0000    2112.0
 140.0000    1820.0
 145.0000    1830.0
 150.0000    1667.0
 155.0000    1657.0
 160.0000    1634.0
 165.0000    1507.0
 170.0000    1545.0
 175.0000    1475.0
 180.0000    1442.0
 185.0000    1288.0
 190.0000    1423.0
 195.0000    1415.0
 200.0000    1493.0
 205.0000    1547.0
 210.0000    1741.0
 215.0000    1672.0
 220.0000    1678.0
 225.0000    1872.0
 230.0000    1987.0
 235.0000    2084.0
 240.0000    2137.0
 245.0000    1940.0
 250.0000    2054.0
 255.0000    2104.0
 260.0000    2231.0
 265.0000    2427.0
 270.0000    2494.0
 275.0000    2537.0
 280.0000    2404.0
 285.0000    2393.0
 290.0000    2814.0
 295.0000    2709.0
 300.0000    2557.0
 305.0000    2381.0
 310.0000    2184.0
 315.0000    2112.0
 320.0000    2056.0
 325.0000    1824.0
 330.0000    1860.0
 335.0000    1755.0
 340.0000    1610.0
 345.0000    1686.0
 350.0000    1701.0
 355.0000    1534.0
; (Data for Range number 6)
_DRIVE='PHI'
_STEPTIME=1.000000
_STEPSIZE=5.000000
_STEPMODE='C'
_START=0.000000
_THETA=17.200001
_2THETA=34.400002
_KHI=25.000000
_PHI=0.000000
_X=0.876000
_Y=9.952000
_Z=0.085500
_DIVERGENCE=0.200000
_ANTISCATTER=0.200000
_DETECTOR=1
; S.C.
_HV=584.000000
_GAIN=80.000000
_LLD=0.494000
_ULD=2.094000
_DETECTORSLIT='unkn'
_AUX1=0.000000
_AUX2=0.000000
_AUX3=0.000000
_TIMESTARTED=407.000000
_TEMP_RATE=0.000000
_TEMP_DELAY=0.000000
_KV=40
_MA=40
_RANGE_WL=1.540600
_3DPLANE=0
_2THETACPS
   0.0000    1236.0
   5.0000    1219.0
  10.0000    1265.0
  15.0000    1274.0
  20.0000    1376.0
  25.0000    1362.0
  30.0000    1395.0
  35.0000    1350.0
  40.0000    1348.0
  45.0000    1309.0
  50.0000    1393.0
  55.0000    1651.0
  60.0000    1637.0
  65.0000    1682.0
  70.0000    1649.0
  75.0000    1712.0
  80.0000    1981.0
  85.0000    1919.0
  90.0000    2113.0
  95.0000    2373.0
 100.0000    2371.0
 105.0000    2095.0
 110.0000    1960.0
 115.0000    1937.0
 120.0000    1907.0
 125.0000    2098.0
 130.0000    2139.0
 135.0000    1845.0
 140.0000    1477.0
 145.0000    1316.0
 150.0000    1261.0
 155.0000    1261.0
 160.0000    1216.0
 165.0000    1159.0
 170.0000    1155.0
 175.0000    980.00
 180.0000    917.00
 185.0000    924.00
 190.0000    990.00
 195.0000    977.00
 200.0000    1099.0
 205.0000    1266.0
 210.0000    1301.0
 215.0000    1374.0
 220.0000    1348.0
 225.0000    1314.0
 230.0000    1424.0
 235.0000    1525.0
 240.0000    1600.0
 245.0000    1818.0
 250.0000    1881.0
 255.0000    1922.0
 260.0000    2022.0
 265.0000    1945.0
 270.0000    2103.0
 275.0000    2127.0
 280.0000    2228.0
 285.0000    2124.0
 290.0000    2375.0
 295.0000    2411.0
 300.0000    2325.0
 305.0000    2042.0
 310.0000    2004.0
 315.0000    1904.0
 320.0000    1702.0
 325.0000    1543.0
 330.0000    1377.0
 335.0000    1231.0
 340.0000    1185.0
 345.0000    1098.0
 350.0000    1038.0
 355.0000    1180.0
; (Data for Range number 7)
_DRIVE='PHI'
_STEPTIME=1.000000
_STEPSIZE=5.000000
_STEPMODE='C'
_START=0.000000
_THETA=17.200001
_2THETA=34.400002
_KHI=30.000000
_PHI=0.000000
_X=0.876000
_Y=9.952000
_Z=0.085500
_DIVERGENCE=0.200000
_ANTISCATTER=0.200000
_DETECTOR=1
; S.C.
_HV=584.000000
_GAIN=80.000000
_LLD=0.494000
_ULD=2.094000
_DETECTORSLIT='unkn'
_AUX1=0.000000
_AUX2=0.000000
_AUX3=0.000000
_TIMESTARTED=485.000000
_TEMP_RATE=0.000000
_TEMP_DELAY=0.000000
_KV=40
_MA=40
_RANGE_WL=1.540600
_3DPLANE=0
_2THETACPS
   0.0000    758.00
   5.0000    804.00
  10.0000    746.00
  15.0000    794.00
  20.0000    884.00
  25.0000    933.00
  30.0000    1089.0
  35.0000    1008.0
  40.0000    1117.0
  45.0000    1073.0
  50.0000    976.00
  55.0000    1173.0
  60.0000    1388.0
  65.0000    1285.0
  70.0000    1364.0
  75.0000    1478.0
  80.0000    1393.0
  85.0000    1444.0
  90.0000    1793.0
  95.0000    1984.0
 100.0000    1948.0
 105.0000    1826.0
 110.0000    1429.0
 115.0000    1371.0
 120.0000    1392.0
 125.0000    1529.0
 130.0000    1476.0
 135.0000    1249.0
 140.0000    1168.0
 145.0000    1178.0
 150.0000    1059.0
 155.0000    847.00
 160.0000    841.00
 165.0000    824.00
 170.0000    758.00
 175.0000    725.00
 180.0000    730.00
 185.0000    696.00
 190.0000    778.00
 195.0000    833.00
 200.0000    910.00
 205.0000    906.00
 210.0000    905.00
 215.0000    909.00
 220.0000    1096.0
 225.0000    1140.0
 230.0000    1189.0
 235.0000    1167.0
 240.0000    1264.0
 245.0000    1380.0
 250.0000    1716.0
 255.0000    1832.0
 260.0000    1710.0
 265.0000    1651.0
 270.0000    1828.0
 275.0000    1949.0
 280.0000    2131.0
 285.0000    1933.0
 290.0000    1737.0
 295.0000    1992.0
 300.0000    2145.0
 305.0000    1681.0
 310.0000    1327.0
 315.0000    1107.0
 320.0000    1021.0
 325.0000    924.00
 330.0000    854.00
 335.0000    736.00
 340.0000    877.00
 345.0000    824.00
 350.0000    899.00
 355.0000    883.00
; (Data for Range number 8)
_DRIVE='PHI'
_STEPTIME=1.000000
_STEPSIZE=5.000000
_STEPMODE='C'
_START=0.000000
_THETA=17.200001
_2THETA=34.400002
_KHI=35.000000
_PHI=0.000000
_X=0.876000
_Y=9.952000
_Z=0.085500
_DIVERGENCE=0.200000
_ANTISCATTER=0.200000
_DETECTOR=1
; S.C.
_HV=584.000000
_GAIN=80.000000
_LLD=0.494000
_ULD=2.094000
_DETECTORSLIT='unkn'
_AUX1=0.000000
_AUX2=0.000000
_AUX3=0.000000
_TIMESTARTED=563.000000
_TEMP_RATE=0.000000
_TEMP_DELAY=0.000000
_KV=40
_MA=40
_RANGE_WL=1.540600
_3DPLANE=0
_2THETACPS
   0.0000    592.00
   5.0000    642.00
  10.0000    629.00
  15.0000    577.00
  20.0000    736.00
  25.0000    692.00
  30.0000    733.00
  35.0000    794.00
  40.0000    717.00
  45.0000    846.00
  50.0000    878.00
  55.0000    1018.0
  60.0000    1014.0
  65.0000    937.00
  70.0000    991.00
  75.0000    1022.0
  80.0000    1097.0
  85.0000    1368.0
  90.0000    1446.0
  95.0000    1392.0
 100.0000    1457.0
 105.0000    1312.0
 110.0000    1120.0
 115.0000    1127.0
 120.0000    1022.0
 125.0000    964.00
 130.0000    923.00
 135.0000    763.00
 140.0000    691.00
 145.0000    697.00
 150.0000    598.00
 155.0000    587.00
 160.0000    594.00
 165.0000    573.00
 170.0000    576.00
 175.0000    507.00
 180.0000    552.00
 185.0000    601.00
 190.0000    601.00
 195.0000    691.00
 200.0000    721.00
 205.0000    709.00
 210.0000    754.00
 215.0000    789.00
 220.0000    834.00
 225.0000    940.00
 230.0000    944.00
 235.0000    1015.0
 240.0000    1098.0
 245.0000    1105.0
 250.0000    1262.0
 255.0000    1275.0
 260.0000    1400.0
 265.0000    1466.0
 270.0000    1999.0
 275.0000    1866.0
 280.0000    1798.0
 285.0000    1780.0
 290.0000    1413.0
 295.0000    1284.0
 300.0000    1112.0
 305.0000    992.00
 310.0000    942.00
 315.0000    838.00
 320.0000    754.00
 325.0000    676.00
 330.0000    648.00
 335.0000    606.00
 340.0000    575.00
 345.0000    638.00
 350.0000    571.00
 355.0000    604.00
; (Data for Range number 9)
_DRIVE='PHI'
_STEPTIME=1.000000
_STEPSIZE=5.000000
_STEPMODE='C'
_START=0.000000
_THETA=17.200001
_2THETA=34.400002
_KHI=40.000000
_PHI=0.000000
_X=0.876000
_Y=9.952000
_Z=0.085500
_DIVERGENCE=0.200000
_ANTISCATTER=0.200000
_DETECTOR=1
; S.C.
_HV=584.000000
_GAIN=80.000000
_LLD=0.494000
_ULD=2.094000
_DETECTORSLIT='unkn'
_AUX1=0.000000
_AUX2=0.000000
_AUX3=0.000000
_TIMESTARTED=642.000000
_TEMP_RATE=0.000000
_TEMP_DELAY=0.000000
_KV=40
_MA=40
_RANGE_WL=1.540600
_3DPLANE=0
_2THETACPS
   0.0000    537.00
   5.0000    576.00
  10.0000    558.00
  15.0000    555.00
  20.0000    541.00
  25.0000    612.00
  30.0000    596.00
  35.0000    653.00
  40.0000    690.00
  45.0000    720.00
  50.0000    796.00
  55.0000    840.00
  60.0000    845.00
  65.0000    863.00
  70.0000    789.00
  75.0000    749.00
  80.0000    817.00
  85.0000    1070.0
  90.0000    1054.0
  95.0000    1041.0
 100.0000    1013.0
 105.0000    1054.0
 110.0000    923.00
 115.0000    742.00
 120.0000    697.00
 125.0000    678.00
 130.0000    625.00
 135.0000    535.00
 140.0000    523.00
 145.0000    520.00
 150.0000    545.00
 155.0000    489.00
 160.0000    437.00
 165.0000    486.00
 170.0000    524.00
 175.0000    504.00
 180.0000    482.00
 185.0000    539.00
 190.0000    556.00
 195.0000    619.00
 200.0000    629.00
 205.0000    564.00
 210.0000    659.00
 215.0000    694.00
 220.0000    754.00
 225.0000    787.00
 230.0000    828.00
 235.0000    744.00
 240.0000    899.00
 245.0000    943.00
 250.0000    968.00
 255.0000    1046.0
 260.0000    1146.0
 265.0000    1163.0
 270.0000    1205.0
 275.0000    1333.0
 280.0000    1366.0
 285.0000    1302.0
 290.0000    1020.0
 295.0000    848.00
 300.0000    826.00
 305.0000    776.00
 310.0000    739.00
 315.0000    601.00
 320.0000    609.00
 325.0000    565.00
 330.0000    544.00
 335.0000    589.00
 340.0000    564.00
 345.0000    557.00
 350.0000    548.00
 355.0000    543.00
; (Data for Range number 10)
_DRIVE='PHI'
_STEPTIME=1.000000
_STEPSIZE=5.000000
_STEPMODE='C'
_START=0.000000
_THETA=17.200001
_2THETA=34.400002
_KHI=45.000000
_PHI=0.000000
_X=0.876000
_Y=9.952000
_Z=0.085500
_DIVERGENCE=0.200000
_ANTISCATTER=0.200000
_DETECTOR=1
; S.C.
_HV=584.000000
_GAIN=80.000000
_LLD=0.494000
_ULD=2.094000
_DETECTORSLIT='unkn'
_AUX1=0.000000
_AUX2=0.000000
_AUX3=0.000000
_TIMESTARTED=720.000000
_TEMP_RATE=0.000000
_TEMP_DELAY=0.000000
_KV=40
_MA=40
_RANGE_WL=1.540600
_3DPLANE=0
_2THETACPS
   0.0000    526.00
   5.0000    539.00
  10.0000    510.00
  15.0000    549.00
  20.0000    496.00
  25.0000    546.00
  30.0000    519.00
  35.0000    575.00
  40.0000    600.00
  45.0000    663.00
  50.0000    726.00
  55.0000    713.00
  60.0000    753.00
  65.0000    720.00
  70.0000    748.00
  75.0000    699.00
  80.0000    653.00
  85.0000    852.00
  90.0000    740.00
  95.0000    786.00
 100.0000    710.00
 105.0000    634.00
 110.0000    685.00
 115.0000    552.00
 120.0000    561.00
 125.0000    579.00
 130.0000    539.00
 135.0000    491.00
 140.0000    491.00
 145.0000    485.00
 150.0000    465.00
 155.0000    459.00
 160.0000    518.00
 165.0000    494.00
 170.0000    497.00
 175.0000    469.00
 180.0000    476.00
 185.0000    523.00
 190.0000    521.00
 195.0000    495.00
 200.0000    537.00
 205.0000    549.00
 210.0000    666.00
 215.0000    580.00
 220.0000    569.00
 225.0000    614.00
 230.0000    630.00
 235.0000    663.00
 240.0000    649.00
 245.0000    916.00
 250.0000    875.00
 255.0000    911.00
 260.0000    885.00
 265.0000    850.00
 270.0000    905.00
 275.0000    902.00
 280.0000    901.00
 285.0000    918.00
 290.0000    835.00
 295.0000    715.00
 300.0000    742.00
 305.0000    653.00
 310.0000    605.00
 315.0000    575.00
 320.0000    498.00
