# 3DExplore ascii
# Sample name : 
# Comment : 
# Data Dimension: 2
# Location Dimension: 2
# System : 
# wavelength: 1.540593
# origin : 0.000000 0.000000 
# gonio origin : 0.000000 0.000000 0.000000 0.000000 
# min : 10.0000000 0.0000000 
# max : 90.0000000 360.0000000 
# axis type : "Alpha" "Beta" 
# gain : 0.500000
# number of data : 17 73 
10.0000000	0.0000000	286.3037	
15.0000000	0.0000000	373.4247	
20.0000000	0.0000000	468.0205	
25.0000000	0.0000000	576.5841	
30.0000000	0.0000000	661.5473	
35.0000000	0.0000000	780.4385	
40.0000000	0.0000000	871.0378	
45.0000000	0.0000000	1003.4552	
50.0000000	0.0000000	1268.5843	
55.0000000	0.0000000	1805.5413	
60.0000000	0.0000000	2602.4570	
65.0000000	0.0000000	3351.4745	
70.0000000	0.0000000	4132.4652	
75.0000000	0.0000000	6812.9685	
80.0000000	0.0000000	7920.4531	
85.0000000	0.0000000	5953.3704	
90.0000000	0.0000000	7654.4619	
10.0000000	5.0000000	290.4315	
15.0000000	5.0000000	371.3104	
20.0000000	5.0000000	449.3176	
25.0000000	5.0000000	557.2785	
30.0000000	5.0000000	636.7555	
35.0000000	5.0000000	761.4709	
40.0000000	5.0000000	841.6681	
45.0000000	5.0000000	957.2205	
50.0000000	5.0000000	1135.4971	
55.0000000	5.0000000	1515.0509	
60.0000000	5.0000000	2283.3240	
65.0000000	5.0000000	3258.8180	
70.0000000	5.0000000	3735.2445	
75.0000000	5.0000000	5753.3328	
80.0000000	5.0000000	8646.1083	
85.0000000	5.0000000	6066.1277	
90.0000000	5.0000000	7654.4619	
10.0000000	10.0000000	280.3704	
15.0000000	10.0000000	368.3313	
20.0000000	10.0000000	470.0427	
25.0000000	10.0000000	555.5557	
30.0000000	10.0000000	658.4185	
35.0000000	10.0000000	755.5082	
40.0000000	10.0000000	818.0086	
45.0000000	10.0000000	898.3134	
50.0000000	10.0000000	1068.3121	
55.0000000	10.0000000	1337.7980	
60.0000000	10.0000000	1973.1658	
65.0000000	10.0000000	3211.4764	
70.0000000	10.0000000	3742.4016	
75.0000000	10.0000000	5144.2566	
80.0000000	10.0000000	8668.2142	
85.0000000	10.0000000	6634.7468	
90.0000000	10.0000000	7654.4619	
10.0000000	15.0000000	278.6646	
15.0000000	15.0000000	368.8879	
20.0000000	15.0000000	465.8632	
25.0000000	15.0000000	585.3826	
30.0000000	15.0000000	687.1272	
35.0000000	15.0000000	745.3188	
40.0000000	15.0000000	854.8391	
45.0000000	15.0000000	898.5567	
50.0000000	15.0000000	1028.6408	
55.0000000	15.0000000	1196.5912	
60.0000000	15.0000000	1718.3168	
65.0000000	15.0000000	2899.2468	
70.0000000	15.0000000	3760.6323	
75.0000000	15.0000000	4871.4351	
80.0000000	15.0000000	8359.3996	
85.0000000	15.0000000	7671.5552	
90.0000000	15.0000000	7654.4619	
10.0000000	20.0000000	284.0548	
15.0000000	20.0000000	392.4638	
20.0000000	20.0000000	501.1687	
25.0000000	20.0000000	594.2753	
30.0000000	20.0000000	646.3139	
35.0000000	20.0000000	733.8672	
40.0000000	20.0000000	835.5496	
45.0000000	20.0000000	879.3181	
50.0000000	20.0000000	1011.6325	
55.0000000	20.0000000	1139.1060	
60.0000000	20.0000000	1505.8017	
65.0000000	20.0000000	2507.2186	
70.0000000	20.0000000	3417.0855	
75.0000000	20.0000000	4564.7381	
80.0000000	20.0000000	7838.4368	
85.0000000	20.0000000	8239.7794	
90.0000000	20.0000000	7654.4619	
10.0000000	25.0000000	288.8856	
15.0000000	25.0000000	389.4634	
20.0000000	25.0000000	497.3913	
25.0000000	25.0000000	623.7326	
30.0000000	25.0000000	654.7259	
35.0000000	25.0000000	745.5775	
40.0000000	25.0000000	804.6194	
45.0000000	25.0000000	856.5193	
50.0000000	25.0000000	998.8670	
55.0000000	25.0000000	1203.7441	
60.0000000	25.0000000	1550.0619	
65.0000000	25.0000000	2482.8098	
70.0000000	25.0000000	3224.7525	
75.0000000	25.0000000	4305.3113	
80.0000000	25.0000000	7261.3739	
85.0000000	25.0000000	8340.4718	
90.0000000	25.0000000	7654.4619	
10.0000000	30.0000000	292.8938	
15.0000000	30.0000000	403.1436	
20.0000000	30.0000000	519.4807	
25.0000000	30.0000000	647.1504	
30.0000000	30.0000000	692.8162	
35.0000000	30.0000000	757.9983	
40.0000000	30.0000000	815.0532	
45.0000000	30.0000000	890.7685	
50.0000000	30.0000000	988.9812	
55.0000000	30.0000000	1172.8054	
60.0000000	30.0000000	1526.6549	
65.0000000	30.0000000	2506.0601	
70.0000000	30.0000000	3005.4372	
75.0000000	30.0000000	3824.9602	
80.0000000	30.0000000	6980.5587	
85.0000000	30.0000000	8332.9968	
90.0000000	30.0000000	7654.4619	
10.0000000	35.0000000	286.3121	
15.0000000	35.0000000	366.3329	
20.0000000	35.0000000	495.0405	
25.0000000	35.0000000	636.1594	
30.0000000	35.0000000	716.7268	
35.0000000	35.0000000	804.1821	
40.0000000	35.0000000	827.8325	
45.0000000	35.0000000	869.1346	
50.0000000	35.0000000	968.9714	
55.0000000	35.0000000	1129.5618	
60.0000000	35.0000000	1514.9773	
65.0000000	35.0000000	2546.8524	
70.0000000	35.0000000	3125.4752	
75.0000000	35.0000000	3589.1101	
80.0000000	35.0000000	6950.8114	
85.0000000	35.0000000	8675.8517	
90.0000000	35.0000000	7654.4619	
10.0000000	40.0000000	270.8149	
15.0000000	40.0000000	384.6696	
20.0000000	40.0000000	504.3548	
25.0000000	40.0000000	609.9935	
30.0000000	40.0000000	669.8252	
35.0000000	40.0000000	745.2644	
40.0000000	40.0000000	797.4227	
45.0000000	40.0000000	902.0299	
50.0000000	40.0000000	977.2158	
55.0000000	40.0000000	1081.5939	
60.0000000	40.0000000	1465.4422	
65.0000000	40.0000000	2568.2840	
70.0000000	40.0000000	3275.4007	
75.0000000	40.0000000	3576.3182	
80.0000000	40.0000000	6970.8204	
85.0000000	40.0000000	8735.8337	
90.0000000	40.0000000	7654.4619	
10.0000000	45.0000000	259.4513	
15.0000000	45.0000000	401.7506	
20.0000000	45.0000000	502.6527	
25.0000000	45.0000000	617.1069	
30.0000000	45.0000000	694.4017	
35.0000000	45.0000000	747.0739	
40.0000000	45.0000000	763.7889	
45.0000000	45.0000000	892.6622	
50.0000000	45.0000000	959.1163	
55.0000000	45.0000000	1036.4299	
60.0000000	45.0000000	1486.2863	
65.0000000	45.0000000	2548.2103	
70.0000000	45.0000000	3150.4360	
75.0000000	45.0000000	3538.1857	
80.0000000	45.0000000	7016.4304	
85.0000000	45.0000000	8646.1341	
90.0000000	45.0000000	7654.4619	
10.0000000	50.0000000	259.5267	
15.0000000	50.0000000	397.0772	
20.0000000	50.0000000	477.1846	
25.0000000	50.0000000	596.2818	
30.0000000	50.0000000	641.2828	
35.0000000	50.0000000	720.4354	
40.0000000	50.0000000	752.2882	
45.0000000	50.0000000	853.6406	
50.0000000	50.0000000	957.4681	
55.0000000	50.0000000	1062.4622	
60.0000000	50.0000000	1594.7922	
65.0000000	50.0000000	2393.8665	
70.0000000	50.0000000	2730.9141	
75.0000000	50.0000000	3420.7303	
80.0000000	50.0000000	7198.1444	
85.0000000	50.0000000	8319.4700	
90.0000000	50.0000000	7654.4619	
10.0000000	55.0000000	258.2390	
15.0000000	55.0000000	375.0240	
20.0000000	55.0000000	488.2182	
25.0000000	55.0000000	606.8408	
30.0000000	55.0000000	629.9153	
35.0000000	55.0000000	709.9624	
40.0000000	55.0000000	791.0041	
45.0000000	55.0000000	868.4535	
50.0000000	55.0000000	1003.1906	
55.0000000	55.0000000	1211.1825	
60.0000000	55.0000000	1678.9492	
65.0000000	55.0000000	2171.6442	
70.0000000	55.0000000	2426.5545	
75.0000000	55.0000000	3345.9016	
80.0000000	55.0000000	7306.4611	
85.0000000	55.0000000	8176.7969	
90.0000000	55.0000000	7654.4619	
10.0000000	60.0000000	253.2631	
15.0000000	60.0000000	379.5413	
20.0000000	60.0000000	464.6658	
25.0000000	60.0000000	528.4639	
30.0000000	60.0000000	624.3250	
35.0000000	60.0000000	724.4554	
40.0000000	60.0000000	821.4778	
45.0000000	60.0000000	922.0876	
50.0000000	60.0000000	1150.2868	
55.0000000	60.0000000	1532.4988	
60.0000000	60.0000000	1976.3989	
65.0000000	60.0000000	2144.5025	
70.0000000	60.0000000	2285.3692	
75.0000000	60.0000000	3474.7190	
80.0000000	60.0000000	7747.7518	
85.0000000	60.0000000	8647.5724	
90.0000000	60.0000000	7654.4619	
10.0000000	65.0000000	252.0674	
15.0000000	65.0000000	360.7690	
20.0000000	65.0000000	458.3580	
25.0000000	65.0000000	541.5340	
30.0000000	65.0000000	642.8725	
35.0000000	65.0000000	713.0322	
40.0000000	65.0000000	823.9264	
45.0000000	65.0000000	1009.9894	
50.0000000	65.0000000	1336.2116	
55.0000000	65.0000000	1886.1690	
60.0000000	65.0000000	2190.2710	
65.0000000	65.0000000	2103.7226	
70.0000000	65.0000000	2351.4939	
75.0000000	65.0000000	3973.6310	
80.0000000	65.0000000	8101.6019	
85.0000000	65.0000000	9273.1540	
90.0000000	65.0000000	7654.4619	
10.0000000	70.0000000	253.2092	
15.0000000	70.0000000	362.6924	
20.0000000	70.0000000	460.9963	
25.0000000	70.0000000	566.4541	
30.0000000	70.0000000	664.6333	
35.0000000	70.0000000	787.2290	
40.0000000	70.0000000	897.2577	
45.0000000	70.0000000	1113.1269	
50.0000000	70.0000000	1522.8123	
55.0000000	70.0000000	2237.3365	
60.0000000	70.0000000	2526.3327	
65.0000000	70.0000000	2383.5367	
70.0000000	70.0000000	2870.3043	
75.0000000	70.0000000	5077.4782	
80.0000000	70.0000000	8298.8596	
85.0000000	70.0000000	9550.6948	
90.0000000	70.0000000	7654.4619	
10.0000000	75.0000000	267.5788	
15.0000000	75.0000000	371.9991	
20.0000000	75.0000000	482.7589	
25.0000000	75.0000000	579.2987	
30.0000000	75.0000000	674.6657	
35.0000000	75.0000000	855.0517	
40.0000000	75.0000000	1011.7432	
45.0000000	75.0000000	1307.2780	
50.0000000	75.0000000	1737.8237	
55.0000000	75.0000000	2345.2969	
60.0000000	75.0000000	2812.5297	
65.0000000	75.0000000	2981.1210	
70.0000000	75.0000000	3950.0995	
75.0000000	75.0000000	6242.4909	
80.0000000	75.0000000	7737.2659	
85.0000000	75.0000000	9474.5175	
90.0000000	75.0000000	7654.4619	
10.0000000	80.0000000	272.6791	
15.0000000	80.0000000	371.0188	
20.0000000	80.0000000	476.3950	
25.0000000	80.0000000	566.8530	
30.0000000	80.0000000	704.1889	
35.0000000	80.0000000	915.5967	
40.0000000	80.0000000	1149.5761	
45.0000000	80.0000000	1503.1493	
50.0000000	80.0000000	1945.8705	
55.0000000	80.0000000	2469.5739	
60.0000000	80.0000000	3110.0120	
65.0000000	80.0000000	3634.2269	
70.0000000	80.0000000	5315.2251	
75.0000000	80.0000000	7446.1441	
80.0000000	80.0000000	7491.6259	
85.0000000	80.0000000	9249.0416	
90.0000000	80.0000000	7654.4619	
10.0000000	85.0000000	272.5400	
15.0000000	85.0000000	400.6840	
20.0000000	85.0000000	483.9030	
25.0000000	85.0000000	619.2887	
30.0000000	85.0000000	781.4925	
35.0000000	85.0000000	1018.2770	
40.0000000	85.0000000	1296.2034	
45.0000000	85.0000000	1608.3794	
50.0000000	85.0000000	2120.9137	
55.0000000	85.0000000	2638.8910	
60.0000000	85.0000000	3299.7406	
65.0000000	85.0000000	4309.9665	
70.0000000	85.0000000	7012.1523	
75.0000000	85.0000000	7933.8198	
80.0000000	85.0000000	7523.5066	
85.0000000	85.0000000	9250.3979	
90.0000000	85.0000000	7654.4619	
10.0000000	90.0000000	282.9690	
15.0000000	90.0000000	396.5608	
20.0000000	90.0000000	535.3764	
25.0000000	90.0000000	656.5015	
30.0000000	90.0000000	815.6737	
35.0000000	90.0000000	1030.4954	
40.0000000	90.0000000	1327.6413	
45.0000000	90.0000000	1681.2229	
50.0000000	90.0000000	2306.0634	
55.0000000	90.0000000	2928.3417	
60.0000000	90.0000000	3789.7269	
65.0000000	90.0000000	5526.5574	
70.0000000	90.0000000	9056.4227	
75.0000000	90.0000000	8015.0068	
80.0000000	90.0000000	7905.6620	
85.0000000	90.0000000	9235.3706	
90.0000000	90.0000000	7654.4619	
10.0000000	95.0000000	303.4151	
15.0000000	95.0000000	418.9990	
20.0000000	95.0000000	561.8300	
25.0000000	95.0000000	679.8162	
30.0000000	95.0000000	879.0815	
35.0000000	95.0000000	1109.1644	
40.0000000	95.0000000	1324.4726	
45.0000000	95.0000000	1713.6595	
50.0000000	95.0000000	2298.6255	
55.0000000	95.0000000	3122.1019	
60.0000000	95.0000000	4771.3569	
65.0000000	95.0000000	7955.1765	
70.0000000	95.0000000	10860.9544	
75.0000000	95.0000000	7664.1286	
80.0000000	95.0000000	8434.4211	
85.0000000	95.0000000	9386.4436	
90.0000000	95.0000000	7654.4619	
10.0000000	100.0000000	304.1074	
15.0000000	100.0000000	424.7339	
20.0000000	100.0000000	564.0257	
25.0000000	100.0000000	712.9333	
30.0000000	100.0000000	957.7112	
35.0000000	100.0000000	1199.1860	
40.0000000	100.0000000	1398.8708	
45.0000000	100.0000000	1836.7917	
50.0000000	100.0000000	2443.5647	
55.0000000	100.0000000	3585.5565	
60.0000000	100.0000000	6746.0785	
65.0000000	100.0000000	10436.6335	
70.0000000	100.0000000	10058.4157	
75.0000000	100.0000000	6939.0330	
80.0000000	100.0000000	8911.0789	
85.0000000	100.0000000	9249.6439	
90.0000000	100.0000000	7654.4619	
10.0000000	105.0000000	299.0018	
15.0000000	105.0000000	434.5431	
20.0000000	105.0000000	571.6199	
25.0000000	105.0000000	748.7840	
30.0000000	105.0000000	995.0107	
35.0000000	105.0000000	1289.6973	
40.0000000	105.0000000	1767.6357	
45.0000000	105.0000000	2571.3617	
50.0000000	105.0000000	3558.7143	
55.0000000	105.0000000	4793.6653	
60.0000000	105.0000000	8103.5878	
65.0000000	105.0000000	10576.3199	
70.0000000	105.0000000	8533.8498	
75.0000000	105.0000000	6455.5481	
80.0000000	105.0000000	9203.1619	
85.0000000	105.0000000	9152.1526	
90.0000000	105.0000000	7654.4619	
10.0000000	110.0000000	313.1870	
15.0000000	110.0000000	451.3606	
20.0000000	110.0000000	631.7022	
25.0000000	110.0000000	870.6698	
30.0000000	110.0000000	1203.2156	
35.0000000	110.0000000	1589.0244	
40.0000000	110.0000000	2243.1076	
45.0000000	110.0000000	3233.3877	
50.0000000	110.0000000	4365.4842	
55.0000000	110.0000000	5085.1626	
60.0000000	110.0000000	6460.3247	
65.0000000	110.0000000	7313.8005	
70.0000000	110.0000000	6148.2152	
75.0000000	110.0000000	6031.2894	
80.0000000	110.0000000	8727.2986	
85.0000000	110.0000000	8559.3335	
90.0000000	110.0000000	7654.4619	
10.0000000	115.0000000	330.0298	
15.0000000	115.0000000	458.4756	
20.0000000	115.0000000	625.7999	
25.0000000	115.0000000	863.5265	
30.0000000	115.0000000	1232.0200	
35.0000000	115.0000000	1794.7674	
40.0000000	115.0000000	2761.0211	
45.0000000	115.0000000	3731.4863	
50.0000000	115.0000000	4940.3494	
55.0000000	115.0000000	5898.8227	
60.0000000	115.0000000	6987.9644	
65.0000000	115.0000000	6951.4996	
70.0000000	115.0000000	5522.6890	
75.0000000	115.0000000	5614.2702	
80.0000000	115.0000000	7442.0120	
85.0000000	115.0000000	7776.3779	
90.0000000	115.0000000	7654.4619	
10.0000000	120.0000000	317.8745	
15.0000000	120.0000000	432.3635	
20.0000000	120.0000000	574.0199	
25.0000000	120.0000000	732.9847	
30.0000000	120.0000000	986.2969	
35.0000000	120.0000000	1406.3303	
40.0000000	120.0000000	2088.0029	
45.0000000	120.0000000	2787.8590	
50.0000000	120.0000000	3874.7928	
55.0000000	120.0000000	5958.3523	
60.0000000	120.0000000	9124.2074	
65.0000000	120.0000000	8803.3745	
70.0000000	120.0000000	6050.9265	
75.0000000	120.0000000	4844.9309	
80.0000000	120.0000000	6029.5855	
85.0000000	120.0000000	7247.5107	
90.0000000	120.0000000	7654.4619	
10.0000000	125.0000000	295.3044	
15.0000000	125.0000000	389.0135	
20.0000000	125.0000000	558.9944	
25.0000000	125.0000000	718.0384	
30.0000000	125.0000000	930.9328	
35.0000000	125.0000000	1208.8179	
40.0000000	125.0000000	1696.1255	
45.0000000	125.0000000	2176.6389	
50.0000000	125.0000000	2725.2662	
55.0000000	125.0000000	3542.2042	
60.0000000	125.0000000	4810.3841	
65.0000000	125.0000000	6002.5505	
70.0000000	125.0000000	5406.1475	
75.0000000	125.0000000	3538.3951	
80.0000000	125.0000000	4099.6113	
85.0000000	125.0000000	6322.9538	
90.0000000	125.0000000	7654.4619	
10.0000000	130.0000000	295.5488	
15.0000000	130.0000000	411.7353	
20.0000000	130.0000000	543.6583	
25.0000000	130.0000000	690.6492	
30.0000000	130.0000000	847.1247	
35.0000000	130.0000000	1049.8165	
40.0000000	130.0000000	1385.8870	
45.0000000	130.0000000	1739.8694	
50.0000000	130.0000000	2249.7375	
55.0000000	130.0000000	2603.4047	
60.0000000	130.0000000	3041.9231	
65.0000000	130.0000000	4246.5235	
70.0000000	130.0000000	4634.0402	
75.0000000	130.0000000	3071.0945	
80.0000000	130.0000000	3005.3224	
85.0000000	130.0000000	5462.8913	
90.0000000	130.0000000	7654.4619	
10.0000000	135.0000000	305.4323	
15.0000000	135.0000000	411.9331	
20.0000000	135.0000000	531.7204	
25.0000000	135.0000000	701.3718	
30.0000000	135.0000000	881.0599	
35.0000000	135.0000000	987.8009	
40.0000000	135.0000000	1206.1502	
45.0000000	135.0000000	1506.5431	
50.0000000	135.0000000	1858.7790	
55.0000000	135.0000000	2013.8664	
60.0000000	135.0000000	2390.2427	
65.0000000	135.0000000	3288.5585	
70.0000000	135.0000000	3787.6279	
75.0000000	135.0000000	2964.0781	
80.0000000	135.0000000	2506.4162	
85.0000000	135.0000000	4435.2731	
90.0000000	135.0000000	7654.4619	
10.0000000	140.0000000	301.7515	
15.0000000	140.0000000	410.6830	
20.0000000	140.0000000	544.1923	
25.0000000	140.0000000	688.9429	
30.0000000	140.0000000	840.3953	
35.0000000	140.0000000	948.5061	
40.0000000	140.0000000	1136.3587	
45.0000000	140.0000000	1311.7052	
50.0000000	140.0000000	1529.8442	
55.0000000	140.0000000	1691.5588	
60.0000000	140.0000000	1921.9988	
65.0000000	140.0000000	2674.4603	
70.0000000	140.0000000	3263.1785	
75.0000000	140.0000000	2736.2824	
80.0000000	140.0000000	2289.4500	
85.0000000	140.0000000	3536.0483	
90.0000000	140.0000000	7654.4619	
10.0000000	145.0000000	315.0071	
15.0000000	145.0000000	435.9027	
20.0000000	145.0000000	541.5160	
25.0000000	145.0000000	686.8186	
30.0000000	145.0000000	769.4878	
35.0000000	145.0000000	910.3736	
40.0000000	145.0000000	1097.7338	
45.0000000	145.0000000	1232.3458	
50.0000000	145.0000000	1368.2799	
55.0000000	145.0000000	1411.2313	
60.0000000	145.0000000	1545.2571	
65.0000000	145.0000000	2046.6343	
70.0000000	145.0000000	2752.2208	
75.0000000	145.0000000	2276.6781	
80.0000000	145.0000000	2180.7899	
85.0000000	145.0000000	3246.8524	
90.0000000	145.0000000	7654.4619	
10.0000000	150.0000000	333.4722	
15.0000000	150.0000000	437.9930	
20.0000000	150.0000000	542.5065	
25.0000000	150.0000000	690.6513	
30.0000000	150.0000000	794.2640	
35.0000000	150.0000000	901.8101	
40.0000000	150.0000000	1071.0780	
45.0000000	150.0000000	1126.1628	
50.0000000	150.0000000	1281.1283	
55.0000000	150.0000000	1297.2576	
60.0000000	150.0000000	1379.6135	
65.0000000	150.0000000	1728.1275	
70.0000000	150.0000000	2448.3682	
75.0000000	150.0000000	1997.6934	
80.0000000	150.0000000	2055.6091	
85.0000000	150.0000000	3132.8527	
90.0000000	150.0000000	7654.4619	
10.0000000	155.0000000	325.9322	
15.0000000	155.0000000	436.8464	
20.0000000	155.0000000	561.3585	
25.0000000	155.0000000	689.0925	
30.0000000	155.0000000	813.3316	
35.0000000	155.0000000	927.9998	
40.0000000	155.0000000	1065.7598	
45.0000000	155.0000000	1107.9690	
50.0000000	155.0000000	1225.5306	
55.0000000	155.0000000	1254.4469	
60.0000000	155.0000000	1365.2524	
65.0000000	155.0000000	1684.9107	
70.0000000	155.0000000	2206.6452	
75.0000000	155.0000000	1845.5127	
80.0000000	155.0000000	1921.2059	
85.0000000	155.0000000	3058.6378	
90.0000000	155.0000000	7654.4619	
10.0000000	160.0000000	316.7915	
15.0000000	160.0000000	429.3171	
20.0000000	160.0000000	579.5201	
25.0000000	160.0000000	695.8515	
30.0000000	160.0000000	816.4024	
35.0000000	160.0000000	955.3394	
40.0000000	160.0000000	1087.8998	
45.0000000	160.0000000	1168.0254	
50.0000000	160.0000000	1246.2194	
55.0000000	160.0000000	1242.8425	
60.0000000	160.0000000	1343.8790	
65.0000000	160.0000000	1706.5875	
70.0000000	160.0000000	2126.6059	
75.0000000	160.0000000	1674.9902	
80.0000000	160.0000000	1838.8778	
85.0000000	160.0000000	2960.3388	
90.0000000	160.0000000	7654.4619	
10.0000000	165.0000000	321.5840	
15.0000000	165.0000000	401.1305	
20.0000000	165.0000000	552.5752	
25.0000000	165.0000000	638.9759	
30.0000000	165.0000000	733.7675	
35.0000000	165.0000000	908.3292	
40.0000000	165.0000000	1101.4285	
45.0000000	165.0000000	1287.0380	
50.0000000	165.0000000	1530.6089	
55.0000000	165.0000000	1485.7345	
60.0000000	165.0000000	1424.3736	
65.0000000	165.0000000	1620.5788	
70.0000000	165.0000000	1995.8433	
75.0000000	165.0000000	1664.1342	
80.0000000	165.0000000	1758.8849	
85.0000000	165.0000000	2872.9569	
90.0000000	165.0000000	7654.4619	
10.0000000	170.0000000	322.3427	
15.0000000	170.0000000	415.4954	
20.0000000	170.0000000	524.1674	
25.0000000	170.0000000	652.2334	
30.0000000	170.0000000	733.1761	
35.0000000	170.0000000	859.5513	
40.0000000	170.0000000	1065.2396	
45.0000000	170.0000000	1316.5937	
50.0000000	170.0000000	1776.0018	
55.0000000	170.0000000	1873.3355	
60.0000000	170.0000000	1647.2655	
65.0000000	170.0000000	1483.1202	
70.0000000	170.0000000	1741.5817	
75.0000000	170.0000000	1647.6788	
80.0000000	170.0000000	1652.1833	
85.0000000	170.0000000	2691.9662	
90.0000000	170.0000000	7654.4619	
