*Dump of file: D:\UGENT\Linsey\0_5_R.rrw  '28-Apr-2010 13:49:10'
*Sample: SAMPLE='cu 0.5/100310'
*Reflexion ranges * Phi range    0.00 -  360.00 Step    5.00
*Pole figure: 111
*Khi =   0.00
Rescaled, averaged background at 2 theta  18.550 :    3763.200
Rescaled, averaged background at 2 theta  21.270 :    2934.800
 3809.60 3941.60 4005.60 4110.40 4192.80 4168.00 4225.20 4227.20
 4267.20 4148.00 3964.80 3915.20 3590.00 3500.80 3239.20 2683.20
 2306.80 1808.40 1796.00 1946.40 1983.20 1862.80 1953.20 1930.00
 1812.00 1865.20 2118.40 2703.20 2899.20 3379.20 3695.60 3729.60
 3956.80 4048.00 4011.60 4114.00 4153.20 4053.60 4150.40 4149.60
 4148.40 4155.20 4070.40 4094.00 4017.20 3919.60 3956.40 3772.00
 3678.80 3581.60 3278.00 3036.40 2796.40 2497.60 2012.00 1621.60
 1553.20 1518.80 1570.40 1611.20 1565.60 1617.20 1564.80 1496.00
 1651.20 1917.60 2467.60 2714.40 2989.20 3474.80 3505.20 3696.80
*Khi =   5.00
Rescaled, averaged background at 2 theta  18.550 :    3587.600
Rescaled, averaged background at 2 theta  21.270 :    3200.000
 3798.80 4026.40 4158.80 4113.20 4116.00 4240.40 4239.60 4189.20
 4131.60 4032.00 3952.80 3804.80 3587.60 3391.20 3123.60 2652.40
 2224.00 1785.20 1714.00 1886.00 1955.60 1874.40 1990.80 1879.60
 1747.60 1844.00 2027.20 2614.40 2854.80 3413.20 3628.40 3742.40
 4041.60 4092.40 4138.80 4192.80 4278.80 4326.00 4381.60 4344.80
 4349.20 4416.40 4370.80 4324.00 4086.40 4189.60 4036.40 3836.00
 3662.80 3569.20 3340.40 3204.00 2707.20 2495.60 1959.60 1590.80
 1450.00 1434.40 1501.20 1556.00 1545.20 1547.20 1550.00 1526.00
 1617.60 1912.00 2390.00 2633.20 3004.80 3315.20 3428.00 3746.40
*Khi =  10.00
Rescaled, averaged background at 2 theta  18.550 :    3617.200
Rescaled, averaged background at 2 theta  21.270 :    3082.800
 4050.80 4102.40 4400.40 4498.80 4582.40 4602.00 4544.40 4465.60
 4378.00 4227.60 4056.80 3930.80 3709.20 3370.40 3108.40 2644.00
 2124.40 1691.60 1587.60 1769.20 1865.20 1809.20 1824.40 1778.40
 1688.00 1774.00 1956.40 2496.00 2829.20 3376.00 3725.20 3843.20
 4029.20 4188.00 4383.60 4692.40 5017.60 5399.20 5614.80 5974.40
 6098.40 6054.00 5821.60 5753.60 5356.00 4967.20 4696.00 4426.00
 4159.60 3837.20 3532.00 3282.80 2835.20 2496.40 1909.20 1510.40
 1369.20 1360.40 1382.40 1392.80 1402.40 1438.80 1429.20 1368.80
 1544.00 1835.60 2372.00 2543.20 2976.40 3326.80 3550.80 3805.60
*Khi =  15.00
Rescaled, averaged background at 2 theta  18.550 :    3486.400
Rescaled, averaged background at 2 theta  21.270 :    3112.400
 5029.60 5818.00 6724.40 7536.80 7985.20 8094.80 7729.60 6892.40
 6172.40 5264.00 4666.00 4309.20 3827.20 3423.60 3030.40 2549.60
 2004.80 1631.20 1499.60 1656.00 1769.20 1701.20 1766.40 1812.00
 1627.20 1681.60 1814.40 2440.80 2817.60 3203.20 3682.40 3872.40
 4293.20 4700.80 5374.80 6448.40 7718.00 9512.0011184.4012422.40
13436.8013243.6012355.2011020.40 9275.60 7694.00 6627.20 5628.40
 4984.80 4348.00 3880.40 3336.80 2957.60 2445.20 1935.60 1414.40
 1300.40 1318.40 1347.60 1437.60 1377.20 1390.80 1367.20 1296.80
 1476.40 1690.40 2294.40 2606.00 2998.40 3508.00 3885.60 4316.80
*Khi =  20.00
Rescaled, averaged background at 2 theta  18.550 :    3485.600
Rescaled, averaged background at 2 theta  21.270 :    3222.000
 8115.6010875.6014094.0017055.2018945.6018981.6017369.2014500.40
11644.80 8842.40 6746.80 5309.20 4282.00 3590.00 3094.40 2537.60
 1990.80 1528.00 1433.60 1578.80 1742.40 1701.60 1810.40 1768.80
 1611.60 1651.60 1841.20 2342.40 2788.80 3221.20 3731.60 3940.00
 4613.60 5596.00 7189.20 9449.6012628.4016188.8019013.2021071.60
22446.4021772.4020366.4017852.8015042.0012449.60 9846.40 7784.40
 6199.60 5014.00 4093.60 3508.00 2902.40 2480.00 1826.40 1346.40
 1249.20 1270.80 1372.00 1456.00 1388.00 1375.20 1362.40 1256.80
 1367.60 1630.00 2286.00 2605.20 3212.80 3980.80 4750.40 6152.00
*Khi =  25.00
Rescaled, averaged background at 2 theta  18.550 :    3540.400
Rescaled, averaged background at 2 theta  21.270 :    3410.800
12742.0016612.0020010.4023790.4026138.4026361.2024696.4021596.80
18146.8014361.2010577.60 7699.20 5485.20 4088.00 3350.40 2662.80
 2096.00 1574.00 1355.20 1574.40 1711.20 1760.00 1902.80 1795.20
 1588.40 1629.60 1742.00 2361.20 2710.80 3369.20 3784.40 4279.20
 5248.40 6962.40 9673.6012511.2015056.4017576.0018929.2020084.40
20621.6019495.6018964.0017254.0015678.4014259.2012420.8010380.40
 8060.80 6074.80 4514.40 3677.20 2986.40 2418.40 1781.60 1288.40
 1212.80 1250.00 1383.20 1447.60 1451.20 1390.80 1249.20 1164.00
 1320.40 1652.40 2232.80 2660.00 3639.60 4748.80 6556.80 9300.40
*Khi =  30.00
Rescaled, averaged background at 2 theta  18.550 :    3577.200
Rescaled, averaged background at 2 theta  21.270 :    3490.800
14422.0016073.6016981.2018386.4019153.6019454.4019153.6018331.20
17579.6015852.4013842.0010897.60 7924.80 5338.40 3785.60 2852.00
 2194.80 1650.00 1392.80 1576.00 1737.20 1764.00 1912.80 1808.80
 1642.00 1675.20 1815.60 2431.20 2789.20 3458.40 4100.00 4948.40
 6521.20 8865.6011113.2012306.4012584.0012431.2012012.0011854.80
11862.8011455.6011100.4011133.6011123.6011604.4011662.8011148.00
 9748.00 7484.80 5307.60 3976.00 3090.40 2505.20 1859.20 1367.60
 1191.60 1178.00 1325.20 1409.60 1394.00 1353.60 1265.60 1178.00
 1320.00 1663.20 2381.20 3021.20 4405.20 6435.60 9150.0012089.60
*Khi =  35.00
Rescaled, averaged background at 2 theta  18.550 :    3542.800
Rescaled, averaged background at 2 theta  21.270 :    3451.200
12064.0011314.8010618.0010265.6010304.0010423.6010500.8010856.40
11672.0012561.2012913.6012325.2010636.00 7506.00 4912.80 3427.20
 2499.60 1834.80 1545.60 1668.80 1736.80 1743.60 1824.00 1749.20
 1669.20 1776.00 1876.80 2481.20 2999.20 3807.60 4785.20 6328.40
 8385.6010001.2010483.20 9645.20 8508.40 7892.40 7216.80 6890.80
 6849.60 6766.80 6883.20 7125.20 7444.40 8173.60 9074.40 9741.60
10230.00 9190.80 6828.80 4875.60 3552.40 2721.20 1904.40 1483.60
 1237.20 1250.80 1307.20 1324.00 1314.40 1406.00 1274.00 1176.80
 1420.00 1884.40 2724.80 3895.20 5985.20 8872.8011261.2012271.20
*Khi =  40.00
Rescaled, averaged background at 2 theta  18.550 :    3543.200
Rescaled, averaged background at 2 theta  21.270 :    3289.600
 8952.80 7551.60 6953.60 6606.40 6497.20 6531.60 6572.40 6937.60
 7588.80 8540.00 9983.6011356.8012024.0010646.80 7537.60 4847.20
 3192.00 2230.40 1726.40 1781.20 1804.40 1694.80 1734.80 1701.60
 1678.40 1786.80 2129.20 2774.80 3475.20 4794.40 6534.80 8502.00
 9706.80 9342.00 8325.20 6904.80 5990.80 5289.60 5096.40 4855.60
 4892.40 5005.60 4933.20 5156.40 5442.40 6229.60 6896.40 7751.60
 9141.20 9818.40 8768.40 7017.60 4700.80 3238.40 2261.20 1624.00
 1322.40 1192.40 1220.00 1264.80 1291.60 1348.40 1394.00 1382.80
 1639.20 2385.20 3762.80 5877.20 8976.0011124.4011366.0010416.80
*Khi =  45.00
Rescaled, averaged background at 2 theta  18.550 :    3540.800
Rescaled, averaged background at 2 theta  21.270 :    3114.400
 6140.40 5254.40 4943.20 4812.00 4805.20 4923.60 4978.80 5011.60
 5430.80 6084.00 7213.60 8799.2010672.8012011.2010944.40 8384.80
 5399.60 3308.80 2189.20 2012.40 1918.40 1744.40 1828.40 1897.20
 1790.00 2019.60 2500.80 3579.60 5100.40 7368.00 9052.00 9780.40
 8744.40 7396.40 6166.40 5266.80 4640.00 4336.00 4258.80 4242.40
 4204.40 4372.00 4207.20 4318.40 4462.80 4714.80 5353.60 6118.40
 7239.20 8788.80 9614.80 9493.20 7366.80 4827.20 3133.60 2055.60
 1472.40 1301.60 1330.00 1362.80 1294.80 1403.60 1550.00 1724.80
 2550.80 4136.40 6774.40 9709.6011430.4011267.20 9369.20 7494.40
*Khi =  50.00
Rescaled, averaged background at 2 theta  18.550 :    3525.600
Rescaled, averaged background at 2 theta  21.270 :    3124.400
 4356.80 4009.20 4186.80 4202.00 4250.00 4441.20 4256.80 4399.60
 4494.00 4667.20 5458.40 6586.80 8111.6010049.2012028.4012417.60
 9857.60 6321.20 3783.60 2776.80 2305.60 2007.60 2073.60 2086.40
 2119.20 2608.40 3811.60 6221.60 8914.0010482.00 9955.20 8366.00
 6819.60 5696.80 4839.60 4376.00 4238.00 4050.80 4118.00 4166.80
 4281.20 4280.80 4124.80 4078.40 4072.80 4123.20 4395.60 4762.00
 5574.00 6704.00 8145.6010057.6010206.00 8336.80 5568.40 3236.40
 1980.80 1590.80 1566.80 1558.40 1540.80 1664.00 2078.00 3113.60
 5485.20 8920.4011453.2012067.6010727.60 8856.00 6474.00 5159.60
*Khi =  55.00
Rescaled, averaged background at 2 theta  18.550 :    3494.000
Rescaled, averaged background at 2 theta  21.270 :    3082.000
 3833.20 3741.20 4047.20 4134.00 4204.40 4335.20 4261.60 4160.40
 4236.80 4160.80 4452.00 5085.60 5950.00 7008.00 8951.2011940.80
12657.6010857.60 7715.20 5106.40 3458.80 2623.60 2447.60 2511.20
 2949.20 4460.00 7368.8010970.8011629.60 9960.80 7597.20 5951.20
 5125.20 4710.00 4199.60 4133.60 4070.40 4029.60 4137.20 4218.40
 4242.00 4232.00 4207.20 4079.20 4036.00 3931.60 3958.00 4141.60
 4584.00 5146.40 5786.40 7589.20 9970.0010582.40 9681.60 6254.80
 3388.00 2273.20 1943.20 1820.00 1919.20 2551.60 4088.00 7322.00
10896.0013096.8011954.80 9716.80 7340.80 5728.80 4525.20 3915.60
*Khi =  60.00
Rescaled, averaged background at 2 theta  18.550 :    3501.200
Rescaled, averaged background at 2 theta  21.270 :    3128.400
 3626.80 3762.00 3987.60 4161.20 4228.00 4470.00 4339.20 4279.20
 4162.40 4177.60 4099.20 4374.00 4864.80 5306.40 5786.40 7550.40
 9851.2011235.2011315.20 9294.40 6813.20 4372.40 3288.80 3457.60
 4925.60 8339.6011488.4012169.20 9209.60 6440.80 5056.00 4541.60
 4548.40 4389.20 4121.60 4148.00 4130.80 4008.80 4109.60 4135.20
 4309.60 4192.40 4138.80 4040.80 4002.80 3842.80 3910.80 3792.40
 4017.60 4168.80 4353.60 5021.20 6692.80 9054.4011205.6010098.40
 6472.40 3771.20 2658.00 2467.60 3069.60 5180.40 8594.0012134.00
12717.6010761.60 7795.20 5585.60 4580.40 4280.80 3650.40 3581.60
*Khi =  65.00
Rescaled, averaged background at 2 theta  18.550 :    3408.400
Rescaled, averaged background at 2 theta  21.270 :    3085.200
 3619.20 3756.40 3922.40 4074.80 4168.40 4388.40 4262.40 4278.80
 4160.00 4190.40 4117.20 4165.20 4302.00 4451.20 4420.00 4558.40
 5374.00 7092.00 9415.6010897.2010648.40 7744.40 5293.20 5224.40
 8458.8011277.6010680.80 7835.20 4922.00 4126.00 4173.60 4148.40
 4276.80 4207.60 4054.40 3982.80 4090.40 4124.40 4120.80 4107.20
 4184.40 4138.40 4054.40 4058.80 3854.80 3909.20 3727.60 3727.20
 3735.60 3868.00 3818.80 3873.60 4196.40 5415.60 7969.6010132.40
 8927.60 6483.60 4211.60 3812.40 5266.40 8685.6011076.0010982.40
 8190.40 5357.20 4005.60 3487.60 3437.20 3584.40 3354.80 3386.40
*Khi =  70.00
Rescaled, averaged background at 2 theta  18.550 :    3226.800
Rescaled, averaged background at 2 theta  21.270 :    3026.800
 3467.20 3524.40 3798.40 3836.80 3938.00 4088.80 4051.20 4136.40
 4085.60 4112.40 3984.40 3882.00 4156.40 4114.80 3983.20 3710.80
 3648.80 3884.40 5052.40 7525.2010108.4010130.40 7940.40 7963.60
10553.20 9336.00 5940.40 3930.00 3250.40 3461.20 3804.40 3867.60
 4091.20 4104.00 4003.60 4030.00 4072.40 4085.20 4122.00 4035.20
 4028.00 4012.00 4002.40 3891.20 3783.20 3797.20 3705.60 3591.20
 3552.00 3582.00 3406.80 3405.20 3362.00 3578.80 4386.00 6360.40
 7868.80 8292.40 6346.00 5734.00 7313.60 8867.20 8227.20 5799.20
 3641.20 2678.80 2680.40 2874.40 3114.80 3316.40 3134.40 3282.00
*Pole figure: 200
*Khi =   0.00
Rescaled, averaged background at 2 theta  22.060 :    2873.600
Rescaled, averaged background at 2 theta  23.770 :    2392.400
 3096.80 3153.20 3278.00 3328.80 3374.40 3379.60 3331.20 3297.60
 3361.60 3245.20 3193.60 3065.20 2855.20 2703.20 2462.80 2156.80
 1968.80 1647.60 1617.60 1660.00 1694.80 1592.40 1729.20 1786.80
 1698.80 1749.60 1880.00 2202.80 2428.40 2778.80 3135.20 3000.80
 3269.60 3276.80 3347.20 3435.20 3405.60 3420.80 3497.60 3464.00
 3490.00 3503.20 3503.20 3476.80 3396.40 3345.20 3293.20 3171.20
 3123.20 3023.20 2794.00 2628.80 2433.20 2130.40 1730.40 1514.80
 1420.80 1534.80 1559.20 1554.00 1497.20 1524.00 1528.40 1413.60
 1612.80 1824.80 2062.00 2231.20 2459.60 2727.20 2870.80 2996.40
*Khi =   5.00
Rescaled, averaged background at 2 theta  22.060 :    2870.000
Rescaled, averaged background at 2 theta  23.770 :    2351.200
 3119.60 3139.20 3299.20 3231.20 3302.80 3427.60 3284.40 3271.60
 3326.80 3254.80 3168.40 3051.20 2837.60 2694.00 2474.80 2118.40
 1855.60 1634.40 1628.00 1584.00 1641.60 1557.20 1656.00 1742.80
 1644.00 1729.60 1819.60 2184.80 2378.80 2725.20 3045.60 3040.00
 3242.00 3312.00 3249.20 3453.60 3405.20 3389.60 3491.20 3406.00
 3421.20 3398.80 3419.60 3400.40 3438.00 3344.80 3236.00 3222.40
 3108.00 2897.60 2759.60 2556.40 2349.20 2046.40 1685.60 1438.80
 1396.40 1488.80 1501.60 1496.00 1504.40 1484.00 1532.00 1429.60
 1566.40 1678.00 2042.80 2186.40 2516.00 2761.20 2794.00 3006.00
*Khi =  10.00
Rescaled, averaged background at 2 theta  22.060 :    2833.200
Rescaled, averaged background at 2 theta  23.770 :    2390.000
 3033.20 3058.80 3181.20 3222.40 3202.00 3320.00 3265.60 3233.20
 3303.20 3183.60 3032.80 3090.80 2858.80 2676.40 2452.00 2088.40
 1754.40 1540.00 1482.80 1497.60 1573.20 1518.00 1657.60 1670.00
 1596.80 1651.60 1736.80 2089.60 2420.00 2716.00 3012.00 3009.60
 3183.20 3277.20 3294.00 3434.40 3420.00 3411.60 3472.80 3450.40
 3449.60 3450.80 3463.20 3404.40 3398.00 3300.00 3182.80 3134.80
 3070.00 2910.80 2687.20 2517.20 2244.00 1958.40 1522.40 1300.80
 1320.00 1413.60 1374.00 1454.40 1412.80 1411.20 1397.20 1375.20
 1471.60 1610.00 1963.60 2164.40 2406.40 2632.40 2802.00 2913.20
*Khi =  15.00
Rescaled, averaged background at 2 theta  22.060 :    2821.200
Rescaled, averaged background at 2 theta  23.770 :    2381.200
 2990.40 3109.60 3164.00 3256.80 3203.20 3397.60 3269.60 3291.60
 3271.60 3153.20 3160.80 2971.60 2760.00 2571.60 2427.60 1970.80
 1719.60 1451.60 1467.20 1511.60 1552.00 1498.40 1634.00 1583.20
 1556.40 1615.20 1683.20 2008.00 2279.60 2700.40 2928.00 3052.40
 3184.00 3354.00 3379.20 3473.20 3503.60 3521.20 3708.40 3602.00
 3691.60 3706.80 3653.20 3588.00 3457.20 3367.20 3304.80 3170.40
 3019.60 2943.20 2698.00 2499.20 2218.80 1893.20 1521.60 1267.60
 1205.60 1286.80 1356.00 1404.00 1295.20 1344.00 1314.40 1317.60
 1405.20 1564.40 1877.60 2059.20 2390.40 2593.20 2722.80 2986.40
*Khi =  20.00
Rescaled, averaged background at 2 theta  22.060 :    2944.400
Rescaled, averaged background at 2 theta  23.770 :    2394.400
 3159.60 3354.00 3514.00 3589.20 3635.60 3722.80 3652.40 3581.20
 3572.00 3368.80 3252.00 3114.00 2882.40 2642.40 2408.00 2030.40
 1728.40 1460.80 1383.20 1483.20 1467.20 1494.00 1629.20 1683.20
 1554.00 1555.20 1652.00 2019.20 2237.20 2664.40 2924.40 3080.80
 3289.60 3438.00 3491.60 3685.60 3883.60 4044.40 4150.40 4244.40
 4249.60 4401.60 4221.60 4073.20 3819.60 3762.00 3567.60 3462.80
 3213.20 3008.40 2842.00 2496.40 2288.00 1942.00 1504.40 1268.40
 1174.80 1275.20 1363.60 1392.00 1316.40 1299.20 1290.00 1305.20
 1346.40 1543.20 1841.20 2060.80 2411.20 2680.80 2793.60 3057.60
*Khi =  25.00
Rescaled, averaged background at 2 theta  22.060 :    3208.800
Rescaled, averaged background at 2 theta  23.770 :    2507.600
 3714.40 3988.00 4233.20 4419.20 4586.80 4654.40 4466.40 4493.20
 4228.00 4072.00 3844.40 3560.00 3214.40 2879.60 2578.80 2168.40
 1818.00 1524.00 1374.40 1474.00 1504.00 1500.00 1665.20 1712.80
 1636.80 1556.00 1666.80 2119.20 2366.00 2847.20 3163.20 3356.80
 3718.00 4090.00 4305.20 4706.00 4997.20 5300.00 5481.60 5765.20
 5748.40 5681.20 5585.60 5382.00 5204.00 4920.00 4538.00 4218.00
 3854.80 3524.80 3108.80 2752.00 2430.00 2039.60 1545.20 1272.40
 1203.60 1260.80 1395.20 1443.60 1367.20 1350.00 1295.20 1249.60
 1391.60 1609.20 1952.40 2243.60 2563.20 2976.40 3099.20 3562.80
*Khi =  30.00
Rescaled, averaged background at 2 theta  22.060 :    3517.200
Rescaled, averaged background at 2 theta  23.770 :    2737.600
 6060.40 6207.60 6501.20 6612.00 6792.00 6746.00 6669.20 6754.80
 6456.00 6444.80 5928.00 5346.40 4670.40 3972.80 3401.60 2661.60
 2281.60 1822.80 1608.40 1672.00 1554.40 1625.20 1758.00 1818.00
 1727.60 1708.80 1828.00 2260.40 2700.40 3323.60 3831.60 4517.60
 5321.60 5906.40 6571.20 6833.60 7143.20 7323.20 7359.20 7489.60
 7484.00 7508.40 7446.00 7403.60 7000.40 6882.00 6623.20 6118.40
 5628.40 4975.20 4282.80 3631.20 2941.60 2366.00 1864.80 1470.00
 1386.40 1383.20 1459.60 1521.20 1377.60 1420.00 1453.60 1397.20
 1530.80 1832.80 2341.20 2744.80 3457.20 4168.80 4741.60 5542.80
*Khi =  35.00
Rescaled, averaged background at 2 theta  22.060 :    3671.600
Rescaled, averaged background at 2 theta  23.770 :    2818.800
 8546.40 8372.80 8159.20 8078.00 8017.20 8003.60 8098.00 8242.00
 8420.80 8784.80 8688.00 8200.40 7655.20 6442.40 5435.60 4267.60
 3423.20 2582.80 2139.20 2067.20 1866.80 1871.20 1950.80 1926.00
 1912.80 2058.80 2326.00 2942.80 3630.00 4753.60 5845.20 7003.20
 7501.60 7573.60 7407.60 6947.60 6792.40 6616.40 6416.80 6455.20
 6500.00 6540.80 6607.60 6504.40 6514.40 6546.40 6746.80 6855.60
 7042.00 7034.80 6554.80 5727.60 4514.80 3596.40 2710.00 2060.00
 1691.60 1596.00 1581.60 1640.40 1568.00 1646.80 1653.60 1762.00
 1991.60 2664.00 3462.00 4628.40 5862.80 7078.40 7904.80 8368.40
*Khi =  40.00
Rescaled, averaged background at 2 theta  22.060 :    3389.200
Rescaled, averaged background at 2 theta  23.770 :    2660.400
 6833.60 6328.00 6060.00 5883.20 5818.40 5785.20 5950.80 6149.60
 6465.20 7071.60 7472.00 7698.80 8071.60 8117.60 7996.40 7454.80
 6141.60 4539.20 3324.80 2782.00 2499.20 2355.60 2292.80 2242.00
 2308.00 2598.00 3132.00 4364.40 5559.60 7214.80 7978.40 7629.20
 6820.80 5937.20 5136.80 4656.00 4366.00 4191.20 4178.80 4083.20
 4113.60 4271.20 4223.20 4160.40 4177.60 4382.00 4619.60 4914.80
 5430.40 6150.00 6918.00 7414.00 7015.60 5871.20 4522.80 3280.40
 2363.20 1969.60 1924.80 2035.20 2004.40 2168.80 2302.40 2636.00
 3362.40 4672.80 6159.20 7414.40 8052.00 8176.80 7632.40 7413.20
*Khi =  45.00
Rescaled, averaged background at 2 theta  22.060 :    3023.200
Rescaled, averaged background at 2 theta  23.770 :    2452.400
 3864.40 3661.60 3615.60 3608.00 3599.20 3740.40 3723.60 3807.60
 3922.40 4110.00 4357.60 4738.80 5233.20 6076.80 7183.60 8779.60
 9341.60 7366.80 4897.60 3638.40 3082.80 2720.80 2713.20 2642.00
 2652.80 2978.00 3837.20 5524.40 7409.20 8339.20 7129.60 5509.20
 4326.40 3849.20 3510.80 3414.80 3358.00 3266.80 3336.00 3373.60
 3301.60 3388.80 3342.80 3309.60 3295.60 3319.20 3274.40 3391.20
 3576.40 4075.60 4880.00 6418.00 8475.60 8996.40 7218.80 4749.20
 3318.40 2619.20 2417.20 2438.00 2591.60 2797.60 3235.20 4137.20
 5972.40 7981.20 8599.60 7444.40 6178.40 5252.40 4487.60 4052.00
*Khi =  50.00
Rescaled, averaged background at 2 theta  22.060 :    2929.600
Rescaled, averaged background at 2 theta  23.770 :    2394.800
 2851.20 2984.00 3072.40 3088.40 3074.00 3192.00 3133.60 3156.40
 3196.00 3150.40 3146.40 3258.40 3370.80 3642.00 4655.60 7201.60
10484.40 9362.80 5658.40 3699.20 2991.60 2670.00 2665.60 2566.40
 2478.00 2813.60 3697.60 5857.20 8305.20 7962.00 5360.80 3796.80
 3418.80 3348.00 3286.80 3279.20 3313.60 3195.60 3292.80 3322.40
 3249.20 3312.00 3252.80 3211.60 3211.20 3146.40 3126.40 3159.60
 3086.00 3116.00 3472.00 4640.40 8100.0010826.40 8933.60 5417.60
 3478.80 2620.80 2419.60 2539.60 2665.60 2933.60 3624.40 5163.60
 8282.8010184.80 7686.00 4788.00 3404.80 3029.20 2872.40 2863.60
*Khi =  55.00
Rescaled, averaged background at 2 theta  22.060 :    2899.200
Rescaled, averaged background at 2 theta  23.770 :    2452.000
 2791.20 2890.00 3075.60 3069.20 3185.60 3230.40 3228.00 3164.00
 3213.60 3062.80 3118.00 3103.20 2998.80 3052.40 3743.20 6567.60
10577.60 9350.40 5025.20 3024.00 2581.20 2335.20 2340.00 2239.20
 2210.00 2508.00 3321.20 5455.60 8479.20 8282.40 5496.00 3845.20
 3360.40 3261.60 3167.20 3261.60 3219.20 3256.40 3302.80 3335.60
 3396.80 3419.60 3352.80 3264.80 3208.40 3219.20 3073.60 3085.20
 2982.00 2996.00 3232.00 4412.40 8352.8011231.20 8568.40 4738.00
 2922.00 2315.20 2157.20 2230.80 2181.20 2348.00 3016.80 4733.60
 8742.0011166.80 6706.00 3152.40 2527.20 2494.40 2542.80 2741.60
*Khi =  60.00
Rescaled, averaged background at 2 theta  22.060 :    2942.400
Rescaled, averaged background at 2 theta  23.770 :    2454.400
 2814.00 2935.20 3121.60 3181.20 3252.80 3291.20 3248.40 3198.00
